Summary
[Data Information]
Data is:,Measurement Data
Dataset Name:,RawData
Sample Name:,prova2_7725_10min
Sample ID
Option
Analyst
Date/Time:,07/07/2025 15:59:48
Comments
Parameter File Name:,4NP_bezzetto.vspm
Report File Name
[Software Information]
Software Name:,LabSolutions UV-Vis
Version:,1.13
[Instrument Information]
Instrument Name:,UV-2600i
Instrument Type:,UV-2600 Series
Model (S/N):,UV-2600i (A12595901003)

Parameter
[Measurement]
Start:,800 nm
End:,300 nm
Data Interval:,1.0
Scan Speed:,Medium speed
Spectrum Type:,Absorbance
[Accessories]
Accessories:,None
[Advanced]
Slit Width:,2.0
Detector Unit:,Direct Receiving of Light
Light Source Switch Wavelength:,323
S/R Switch:,Standard
Stair Correction:,ON
[Repeat]
Repeat Measurement:,OFF
[Post-processing]
Spectrum Transformation:,OFF
Data Processing Table:,OFF
Print:,OFF

Wavelength (nm),Absorbance
300.0,0.2650
301.0,0.2459
302.0,0.2268
303.0,0.2093
304.0,0.1930
305.0,0.1790
306.0,0.1665
307.0,0.1551
308.0,0.1461
309.0,0.1385
310.0,0.1316
311.0,0.1265
312.0,0.1225
313.0,0.1191
314.0,0.1164
315.0,0.1138
316.0,0.1116
317.0,0.1097
318.0,0.1079
319.0,0.1059
320.0,0.1045
321.0,0.1030
322.0,0.1014
323.0,0.0999
324.0,0.0983
325.0,0.0966
326.0,0.0946
327.0,0.0921
328.0,0.0894
329.0,0.0862
330.0,0.0828
331.0,0.0789
332.0,0.0750
333.0,0.0709
334.0,0.0667
335.0,0.0624
336.0,0.0585
337.0,0.0547
338.0,0.0512
339.0,0.0481
340.0,0.0453
341.0,0.0429
342.0,0.0407
343.0,0.0386
344.0,0.0369
345.0,0.0354
346.0,0.0338
347.0,0.0326
348.0,0.0316
349.0,0.0304
350.0,0.0296
351.0,0.0285
352.0,0.0278
353.0,0.0271
354.0,0.0264
355.0,0.0257
356.0,0.0252
357.0,0.0245
358.0,0.0241
359.0,0.0236
360.0,0.0232
361.0,0.0228
362.0,0.0224
363.0,0.0221
364.0,0.0218
365.0,0.0214
366.0,0.0213
367.0,0.0211
368.0,0.0210
369.0,0.0209
370.0,0.0207
371.0,0.0208
372.0,0.0207
373.0,0.0204
374.0,0.0203
375.0,0.0203
376.0,0.0203
377.0,0.0204
378.0,0.0203
379.0,0.0205
380.0,0.0204
381.0,0.0204
382.0,0.0205
383.0,0.0205
384.0,0.0205
385.0,0.0205
386.0,0.0206
387.0,0.0205
388.0,0.0205
389.0,0.0203
390.0,0.0202
391.0,0.0201
392.0,0.0200
393.0,0.0198
394.0,0.0196
395.0,0.0194
396.0,0.0192
397.0,0.0188
398.0,0.0184
399.0,0.0181
400.0,0.0179
401.0,0.0177
402.0,0.0173
403.0,0.0171
404.0,0.0168
405.0,0.0166
406.0,0.0164
407.0,0.0162
408.0,0.0161
409.0,0.0159
410.0,0.0157
411.0,0.0157
412.0,0.0156
413.0,0.0158
414.0,0.0157
415.0,0.0159
416.0,0.0159
417.0,0.0160
418.0,0.0161
419.0,0.0161
420.0,0.0165
421.0,0.0167
422.0,0.0168
423.0,0.0171
424.0,0.0173
425.0,0.0175
426.0,0.0177
427.0,0.0179
428.0,0.0182
429.0,0.0185
430.0,0.0187
431.0,0.0191
432.0,0.0193
433.0,0.0197
434.0,0.0199
435.0,0.0202
436.0,0.0206
437.0,0.0209
438.0,0.0212
439.0,0.0217
440.0,0.0220
441.0,0.0221
442.0,0.0225
443.0,0.0228
444.0,0.0231
445.0,0.0236
446.0,0.0239
447.0,0.0243
448.0,0.0246
449.0,0.0250
450.0,0.0254
451.0,0.0258
452.0,0.0262
453.0,0.0265
454.0,0.0269
455.0,0.0273
456.0,0.0276
457.0,0.0280
458.0,0.0284
459.0,0.0288
460.0,0.0293
461.0,0.0297
462.0,0.0300
463.0,0.0305
464.0,0.0308
465.0,0.0313
466.0,0.0317
467.0,0.0321
468.0,0.0326
469.0,0.0330
470.0,0.0333
471.0,0.0338
472.0,0.0343
473.0,0.0346
474.0,0.0350
475.0,0.0354
476.0,0.0359
477.0,0.0362
478.0,0.0367
479.0,0.0370
480.0,0.0375
481.0,0.0378
482.0,0.0382
483.0,0.0386
484.0,0.0390
485.0,0.0394
486.0,0.0398
487.0,0.0402
488.0,0.0405
489.0,0.0408
490.0,0.0412
491.0,0.0415
492.0,0.0418
493.0,0.0422
494.0,0.0425
495.0,0.0428
496.0,0.0430
497.0,0.0433
498.0,0.0436
499.0,0.0440
500.0,0.0442
501.0,0.0445
502.0,0.0449
503.0,0.0452
504.0,0.0455
505.0,0.0457
506.0,0.0461
507.0,0.0464
508.0,0.0469
509.0,0.0472
510.0,0.0476
511.0,0.0480
512.0,0.0485
513.0,0.0490
514.0,0.0496
515.0,0.0501
516.0,0.0506
517.0,0.0513
518.0,0.0519
519.0,0.0527
520.0,0.0534
521.0,0.0542
522.0,0.0552
523.0,0.0560
524.0,0.0570
525.0,0.0581
526.0,0.0591
527.0,0.0601
528.0,0.0614
529.0,0.0627
530.0,0.0640
531.0,0.0654
532.0,0.0669
533.0,0.0684
534.0,0.0699
535.0,0.0717
536.0,0.0733
537.0,0.0750
538.0,0.0769
539.0,0.0788
540.0,0.0809
541.0,0.0829
542.0,0.0850
543.0,0.0872
544.0,0.0894
545.0,0.0918
546.0,0.0942
547.0,0.0968
548.0,0.0994
549.0,0.1020
550.0,0.1048
551.0,0.1078
552.0,0.1106
553.0,0.1135
554.0,0.1167
555.0,0.1198
556.0,0.1230
557.0,0.1262
558.0,0.1296
559.0,0.1329
560.0,0.1364
561.0,0.1398
562.0,0.1431
563.0,0.1469
564.0,0.1506
565.0,0.1543
566.0,0.1583
567.0,0.1622
568.0,0.1663
569.0,0.1704
570.0,0.1748
571.0,0.1794
572.0,0.1844
573.0,0.1893
574.0,0.1943
575.0,0.1997
576.0,0.2051
577.0,0.2106
578.0,0.2162
579.0,0.2219
580.0,0.2280
581.0,0.2340
582.0,0.2402
583.0,0.2463
584.0,0.2525
585.0,0.2589
586.0,0.2653
587.0,0.2717
588.0,0.2783
589.0,0.2851
590.0,0.2918
591.0,0.2987
592.0,0.3056
593.0,0.3123
594.0,0.3190
595.0,0.3258
596.0,0.3326
597.0,0.3392
598.0,0.3454
599.0,0.3518
600.0,0.3575
601.0,0.3635
602.0,0.3691
603.0,0.3743
604.0,0.3794
605.0,0.3842
606.0,0.3886
607.0,0.3930
608.0,0.3970
609.0,0.4007
610.0,0.4044
611.0,0.4076
612.0,0.4106
613.0,0.4136
614.0,0.4164
615.0,0.4190
616.0,0.4218
617.0,0.4242
618.0,0.4267
619.0,0.4294
620.0,0.4321
621.0,0.4348
622.0,0.4377
623.0,0.4406
624.0,0.4438
625.0,0.4473
626.0,0.4510
627.0,0.4550
628.0,0.4589
629.0,0.4633
630.0,0.4678
631.0,0.4724
632.0,0.4772
633.0,0.4823
634.0,0.4871
635.0,0.4925
636.0,0.4978
637.0,0.5031
638.0,0.5084
639.0,0.5137
640.0,0.5190
641.0,0.5244
642.0,0.5297
643.0,0.5348
644.0,0.5400
645.0,0.5447
646.0,0.5490
647.0,0.5532
648.0,0.5569
649.0,0.5601
650.0,0.5627
651.0,0.5648
652.0,0.5661
653.0,0.5667
654.0,0.5666
655.0,0.5658
656.0,0.5641
657.0,0.5616
658.0,0.5585
659.0,0.5543
660.0,0.5494
661.0,0.5437
662.0,0.5369
663.0,0.5294
664.0,0.5210
665.0,0.5112
666.0,0.5007
667.0,0.4890
668.0,0.4764
669.0,0.4624
670.0,0.4473
671.0,0.4310
672.0,0.4139
673.0,0.3960
674.0,0.3768
675.0,0.3576
676.0,0.3381
677.0,0.3177
678.0,0.2974
679.0,0.2767
680.0,0.2566
681.0,0.2376
682.0,0.2192
683.0,0.2015
684.0,0.1849
685.0,0.1689
686.0,0.1544
687.0,0.1406
688.0,0.1279
689.0,0.1171
690.0,0.1068
691.0,0.0972
692.0,0.0885
693.0,0.0806
694.0,0.0736
695.0,0.0672
696.0,0.0612
697.0,0.0560
698.0,0.0513
699.0,0.0469
700.0,0.0428
701.0,0.0394
702.0,0.0361
703.0,0.0333
704.0,0.0307
705.0,0.0282
706.0,0.0261
707.0,0.0241
708.0,0.0222
709.0,0.0207
710.0,0.0192
711.0,0.0178
712.0,0.0168
713.0,0.0156
714.0,0.0146
715.0,0.0137
716.0,0.0129
717.0,0.0120
718.0,0.0114
719.0,0.0108
720.0,0.0103
721.0,0.0096
722.0,0.0090
723.0,0.0086
724.0,0.0082
725.0,0.0078
726.0,0.0074
727.0,0.0070
728.0,0.0067
729.0,0.0065
730.0,0.0060
731.0,0.0058
732.0,0.0055
733.0,0.0053
734.0,0.0050
735.0,0.0049
736.0,0.0046
737.0,0.0045
738.0,0.0042
739.0,0.0041
740.0,0.0040
741.0,0.0039
742.0,0.0036
743.0,0.0036
744.0,0.0034
745.0,0.0033
746.0,0.0031
747.0,0.0031
748.0,0.0029
749.0,0.0029
750.0,0.0027
751.0,0.0025
752.0,0.0026
753.0,0.0025
754.0,0.0025
755.0,0.0023
756.0,0.0023
757.0,0.0023
758.0,0.0023
759.0,0.0021
760.0,0.0020
761.0,0.0018
762.0,0.0017
763.0,0.0016
764.0,0.0016
765.0,0.0016
766.0,0.0016
767.0,0.0014
768.0,0.0014
769.0,0.0015
770.0,0.0013
771.0,0.0013
772.0,0.0012
773.0,0.0012
774.0,0.0013
775.0,0.0011
776.0,0.0012
777.0,0.0010
778.0,0.0009
779.0,0.0010
780.0,0.0009
781.0,0.0009
782.0,0.0009
783.0,0.0008
784.0,0.0009
785.0,0.0008
786.0,0.0008
787.0,0.0007
788.0,0.0006
789.0,0.0006
790.0,0.0006
791.0,0.0005
792.0,0.0006
793.0,0.0005
794.0,0.0005
795.0,0.0005
796.0,0.0004
797.0,0.0005
798.0,0.0004
799.0,0.0001
800.0,0.0002
