Summary
[Data Information]
Data is:,Measurement Data
Dataset Name:,RawData
Sample Name:,prova5_8725_10min
Sample ID
Option
Analyst
Date/Time:,08/07/2025 10:50:11
Comments
Parameter File Name:,4NP_bezzetto.vspm
Report File Name
[Software Information]
Software Name:,LabSolutions UV-Vis
Version:,1.13
[Instrument Information]
Instrument Name:,UV-2600i
Instrument Type:,UV-2600 Series
Model (S/N):,UV-2600i (A12595901003)

Parameter
[Measurement]
Start:,800 nm
End:,400 nm
Data Interval:,1.0
Scan Speed:,Medium speed
Spectrum Type:,Absorbance
[Accessories]
Accessories:,None
[Advanced]
Slit Width:,2.0
Detector Unit:,Direct Receiving of Light
Light Source Switch Wavelength:,323
S/R Switch:,Standard
Stair Correction:,ON
[Repeat]
Repeat Measurement:,OFF
[Post-processing]
Spectrum Transformation:,OFF
Data Processing Table:,OFF
Print:,OFF

Wavelength (nm),Absorbance
400.0,0.0106
401.0,0.0105
402.0,0.0103
403.0,0.0101
404.0,0.0099
405.0,0.0098
406.0,0.0097
407.0,0.0095
408.0,0.0096
409.0,0.0094
410.0,0.0093
411.0,0.0093
412.0,0.0093
413.0,0.0093
414.0,0.0095
415.0,0.0095
416.0,0.0095
417.0,0.0097
418.0,0.0099
419.0,0.0100
420.0,0.0101
421.0,0.0103
422.0,0.0105
423.0,0.0106
424.0,0.0109
425.0,0.0111
426.0,0.0112
427.0,0.0116
428.0,0.0117
429.0,0.0119
430.0,0.0122
431.0,0.0124
432.0,0.0127
433.0,0.0129
434.0,0.0132
435.0,0.0134
436.0,0.0136
437.0,0.0139
438.0,0.0141
439.0,0.0144
440.0,0.0146
441.0,0.0149
442.0,0.0153
443.0,0.0155
444.0,0.0158
445.0,0.0161
446.0,0.0163
447.0,0.0167
448.0,0.0169
449.0,0.0172
450.0,0.0174
451.0,0.0178
452.0,0.0180
453.0,0.0184
454.0,0.0186
455.0,0.0189
456.0,0.0192
457.0,0.0194
458.0,0.0198
459.0,0.0201
460.0,0.0204
461.0,0.0207
462.0,0.0210
463.0,0.0212
464.0,0.0216
465.0,0.0219
466.0,0.0221
467.0,0.0224
468.0,0.0227
469.0,0.0230
470.0,0.0233
471.0,0.0235
472.0,0.0238
473.0,0.0241
474.0,0.0243
475.0,0.0247
476.0,0.0250
477.0,0.0252
478.0,0.0255
479.0,0.0258
480.0,0.0260
481.0,0.0262
482.0,0.0266
483.0,0.0269
484.0,0.0272
485.0,0.0274
486.0,0.0277
487.0,0.0280
488.0,0.0283
489.0,0.0284
490.0,0.0287
491.0,0.0289
492.0,0.0292
493.0,0.0294
494.0,0.0296
495.0,0.0299
496.0,0.0300
497.0,0.0302
498.0,0.0304
499.0,0.0305
500.0,0.0307
501.0,0.0310
502.0,0.0311
503.0,0.0314
504.0,0.0316
505.0,0.0318
506.0,0.0321
507.0,0.0323
508.0,0.0325
509.0,0.0328
510.0,0.0331
511.0,0.0333
512.0,0.0336
513.0,0.0340
514.0,0.0343
515.0,0.0346
516.0,0.0351
517.0,0.0354
518.0,0.0359
519.0,0.0363
520.0,0.0369
521.0,0.0374
522.0,0.0380
523.0,0.0386
524.0,0.0391
525.0,0.0398
526.0,0.0405
527.0,0.0414
528.0,0.0421
529.0,0.0430
530.0,0.0439
531.0,0.0448
532.0,0.0458
533.0,0.0468
534.0,0.0479
535.0,0.0490
536.0,0.0501
537.0,0.0513
538.0,0.0526
539.0,0.0539
540.0,0.0552
541.0,0.0567
542.0,0.0581
543.0,0.0595
544.0,0.0611
545.0,0.0627
546.0,0.0642
547.0,0.0660
548.0,0.0677
549.0,0.0696
550.0,0.0715
551.0,0.0735
552.0,0.0754
553.0,0.0774
554.0,0.0795
555.0,0.0817
556.0,0.0838
557.0,0.0861
558.0,0.0882
559.0,0.0905
560.0,0.0928
561.0,0.0951
562.0,0.0974
563.0,0.0999
564.0,0.1024
565.0,0.1050
566.0,0.1075
567.0,0.1101
568.0,0.1128
569.0,0.1157
570.0,0.1186
571.0,0.1217
572.0,0.1248
573.0,0.1282
574.0,0.1316
575.0,0.1352
576.0,0.1387
577.0,0.1424
578.0,0.1462
579.0,0.1501
580.0,0.1543
581.0,0.1583
582.0,0.1625
583.0,0.1669
584.0,0.1710
585.0,0.1754
586.0,0.1798
587.0,0.1844
588.0,0.1891
589.0,0.1937
590.0,0.1984
591.0,0.2032
592.0,0.2079
593.0,0.2128
594.0,0.2176
595.0,0.2224
596.0,0.2274
597.0,0.2321
598.0,0.2365
599.0,0.2411
600.0,0.2454
601.0,0.2497
602.0,0.2538
603.0,0.2576
604.0,0.2614
605.0,0.2650
606.0,0.2684
607.0,0.2717
608.0,0.2746
609.0,0.2774
610.0,0.2801
611.0,0.2826
612.0,0.2848
613.0,0.2870
614.0,0.2890
615.0,0.2910
616.0,0.2929
617.0,0.2948
618.0,0.2967
619.0,0.2985
620.0,0.3005
621.0,0.3023
622.0,0.3046
623.0,0.3067
624.0,0.3091
625.0,0.3117
626.0,0.3143
627.0,0.3174
628.0,0.3203
629.0,0.3236
630.0,0.3270
631.0,0.3305
632.0,0.3343
633.0,0.3382
634.0,0.3419
635.0,0.3462
636.0,0.3504
637.0,0.3547
638.0,0.3590
639.0,0.3634
640.0,0.3677
641.0,0.3724
642.0,0.3767
643.0,0.3813
644.0,0.3856
645.0,0.3899
646.0,0.3937
647.0,0.3976
648.0,0.4011
649.0,0.4042
650.0,0.4068
651.0,0.4091
652.0,0.4108
653.0,0.4121
654.0,0.4128
655.0,0.4131
656.0,0.4128
657.0,0.4118
658.0,0.4104
659.0,0.4083
660.0,0.4057
661.0,0.4023
662.0,0.3983
663.0,0.3935
664.0,0.3882
665.0,0.3820
666.0,0.3746
667.0,0.3665
668.0,0.3576
669.0,0.3476
670.0,0.3366
671.0,0.3248
672.0,0.3121
673.0,0.2988
674.0,0.2843
675.0,0.2696
676.0,0.2548
677.0,0.2394
678.0,0.2241
679.0,0.2082
680.0,0.1928
681.0,0.1781
682.0,0.1639
683.0,0.1503
684.0,0.1374
685.0,0.1252
686.0,0.1142
687.0,0.1036
688.0,0.0940
689.0,0.0855
690.0,0.0777
691.0,0.0704
692.0,0.0638
693.0,0.0577
694.0,0.0522
695.0,0.0473
696.0,0.0429
697.0,0.0389
698.0,0.0355
699.0,0.0320
700.0,0.0291
701.0,0.0265
702.0,0.0241
703.0,0.0218
704.0,0.0200
705.0,0.0182
706.0,0.0166
707.0,0.0153
708.0,0.0138
709.0,0.0128
710.0,0.0117
711.0,0.0108
712.0,0.0100
713.0,0.0094
714.0,0.0085
715.0,0.0078
716.0,0.0073
717.0,0.0067
718.0,0.0063
719.0,0.0060
720.0,0.0055
721.0,0.0051
722.0,0.0048
723.0,0.0046
724.0,0.0043
725.0,0.0039
726.0,0.0037
727.0,0.0035
728.0,0.0031
729.0,0.0031
730.0,0.0028
731.0,0.0026
732.0,0.0027
733.0,0.0025
734.0,0.0024
735.0,0.0022
736.0,0.0019
737.0,0.0020
738.0,0.0019
739.0,0.0017
740.0,0.0016
741.0,0.0017
742.0,0.0016
743.0,0.0015
744.0,0.0014
745.0,0.0013
746.0,0.0014
747.0,0.0012
748.0,0.0012
749.0,0.0010
750.0,0.0011
751.0,0.0009
752.0,0.0010
753.0,0.0009
754.0,0.0008
755.0,0.0008
756.0,0.0009
757.0,0.0008
758.0,0.0007
759.0,0.0006
760.0,0.0007
761.0,0.0006
762.0,0.0005
763.0,0.0005
764.0,0.0004
765.0,0.0006
766.0,0.0004
767.0,0.0003
768.0,0.0003
769.0,0.0003
770.0,0.0003
771.0,0.0002
772.0,0.0003
773.0,0.0002
774.0,0.0002
775.0,0.0004
776.0,0.0003
777.0,0.0004
778.0,0.0002
779.0,0.0002
780.0,0.0003
781.0,0.0002
782.0,0.0001
783.0,0.0001
784.0,-0.0000
785.0,0.0001
786.0,0.0002
787.0,-0.0000
788.0,0.0002
789.0,0.0002
790.0,0.0003
791.0,0.0002
792.0,0.0001
793.0,-0.0000
794.0,0.0001
795.0,-0.0002
796.0,0.0001
797.0,-0.0002
798.0,-0.0002
799.0,0.0000
800.0,-0.0001
