Summary
[Data Information]
Data is:,Measurement Data
Dataset Name:,RawData
Sample Name:,prova_bd_28825_30min
Sample ID
Option
Analyst
Date/Time:,28/08/2025 17:02:31
Comments
Parameter File Name:,4NP_bezzetto.vspm
Report File Name
[Software Information]
Software Name:,LabSolutions UV-Vis
Version:,1.13
[Instrument Information]
Instrument Name:,UV-2600i
Instrument Type:,UV-2600 Series
Model (S/N):,UV-2600i (A12595901003)

Parameter
[Measurement]
Start:,800 nm
End:,400 nm
Data Interval:,1.0
Scan Speed:,Medium speed
Spectrum Type:,Absorbance
[Accessories]
Accessories:,None
[Advanced]
Slit Width:,2.0
Detector Unit:,Direct Receiving of Light
Light Source Switch Wavelength:,323
S/R Switch:,Standard
Stair Correction:,ON
[Repeat]
Repeat Measurement:,OFF
[Post-processing]
Spectrum Transformation:,OFF
Data Processing Table:,OFF
Print:,OFF

Wavelength (nm),Absorbance
400.0,0.0112
401.0,0.0112
402.0,0.0112
403.0,0.0112
404.0,0.0111
405.0,0.0110
406.0,0.0111
407.0,0.0112
408.0,0.0113
409.0,0.0112
410.0,0.0113
411.0,0.0114
412.0,0.0114
413.0,0.0117
414.0,0.0118
415.0,0.0119
416.0,0.0121
417.0,0.0123
418.0,0.0124
419.0,0.0126
420.0,0.0127
421.0,0.0130
422.0,0.0130
423.0,0.0133
424.0,0.0135
425.0,0.0137
426.0,0.0139
427.0,0.0141
428.0,0.0144
429.0,0.0144
430.0,0.0147
431.0,0.0149
432.0,0.0151
433.0,0.0154
434.0,0.0156
435.0,0.0158
436.0,0.0160
437.0,0.0163
438.0,0.0165
439.0,0.0168
440.0,0.0169
441.0,0.0171
442.0,0.0175
443.0,0.0176
444.0,0.0179
445.0,0.0181
446.0,0.0184
447.0,0.0186
448.0,0.0188
449.0,0.0190
450.0,0.0194
451.0,0.0196
452.0,0.0198
453.0,0.0201
454.0,0.0203
455.0,0.0205
456.0,0.0208
457.0,0.0211
458.0,0.0213
459.0,0.0215
460.0,0.0218
461.0,0.0221
462.0,0.0223
463.0,0.0227
464.0,0.0229
465.0,0.0232
466.0,0.0234
467.0,0.0236
468.0,0.0240
469.0,0.0242
470.0,0.0245
471.0,0.0247
472.0,0.0249
473.0,0.0252
474.0,0.0255
475.0,0.0258
476.0,0.0259
477.0,0.0262
478.0,0.0264
479.0,0.0268
480.0,0.0270
481.0,0.0272
482.0,0.0275
483.0,0.0277
484.0,0.0279
485.0,0.0282
486.0,0.0284
487.0,0.0287
488.0,0.0289
489.0,0.0292
490.0,0.0294
491.0,0.0297
492.0,0.0300
493.0,0.0302
494.0,0.0304
495.0,0.0307
496.0,0.0310
497.0,0.0313
498.0,0.0316
499.0,0.0318
500.0,0.0321
501.0,0.0325
502.0,0.0328
503.0,0.0331
504.0,0.0335
505.0,0.0338
506.0,0.0343
507.0,0.0347
508.0,0.0351
509.0,0.0356
510.0,0.0360
511.0,0.0365
512.0,0.0370
513.0,0.0375
514.0,0.0380
515.0,0.0385
516.0,0.0392
517.0,0.0398
518.0,0.0404
519.0,0.0411
520.0,0.0417
521.0,0.0425
522.0,0.0432
523.0,0.0439
524.0,0.0448
525.0,0.0456
526.0,0.0464
527.0,0.0473
528.0,0.0481
529.0,0.0491
530.0,0.0502
531.0,0.0512
532.0,0.0522
533.0,0.0533
534.0,0.0544
535.0,0.0557
536.0,0.0570
537.0,0.0582
538.0,0.0596
539.0,0.0608
540.0,0.0621
541.0,0.0636
542.0,0.0650
543.0,0.0665
544.0,0.0680
545.0,0.0695
546.0,0.0711
547.0,0.0728
548.0,0.0744
549.0,0.0762
550.0,0.0780
551.0,0.0799
552.0,0.0819
553.0,0.0839
554.0,0.0859
555.0,0.0879
556.0,0.0900
557.0,0.0921
558.0,0.0943
559.0,0.0966
560.0,0.0988
561.0,0.1009
562.0,0.1032
563.0,0.1055
564.0,0.1078
565.0,0.1102
566.0,0.1125
567.0,0.1150
568.0,0.1174
569.0,0.1199
570.0,0.1226
571.0,0.1253
572.0,0.1281
573.0,0.1308
574.0,0.1336
575.0,0.1366
576.0,0.1395
577.0,0.1424
578.0,0.1454
579.0,0.1484
580.0,0.1515
581.0,0.1544
582.0,0.1575
583.0,0.1604
584.0,0.1634
585.0,0.1665
586.0,0.1694
587.0,0.1724
588.0,0.1755
589.0,0.1786
590.0,0.1815
591.0,0.1846
592.0,0.1877
593.0,0.1908
594.0,0.1938
595.0,0.1967
596.0,0.1999
597.0,0.2029
598.0,0.2057
599.0,0.2086
600.0,0.2113
601.0,0.2142
602.0,0.2168
603.0,0.2193
604.0,0.2220
605.0,0.2243
606.0,0.2266
607.0,0.2288
608.0,0.2311
609.0,0.2332
610.0,0.2353
611.0,0.2373
612.0,0.2391
613.0,0.2410
614.0,0.2427
615.0,0.2444
616.0,0.2459
617.0,0.2474
618.0,0.2489
619.0,0.2503
620.0,0.2515
621.0,0.2526
622.0,0.2537
623.0,0.2547
624.0,0.2557
625.0,0.2566
626.0,0.2575
627.0,0.2582
628.0,0.2590
629.0,0.2596
630.0,0.2603
631.0,0.2607
632.0,0.2610
633.0,0.2613
634.0,0.2613
635.0,0.2613
636.0,0.2610
637.0,0.2606
638.0,0.2600
639.0,0.2592
640.0,0.2583
641.0,0.2573
642.0,0.2560
643.0,0.2548
644.0,0.2534
645.0,0.2519
646.0,0.2503
647.0,0.2486
648.0,0.2467
649.0,0.2447
650.0,0.2424
651.0,0.2400
652.0,0.2373
653.0,0.2344
654.0,0.2314
655.0,0.2281
656.0,0.2244
657.0,0.2205
658.0,0.2164
659.0,0.2119
660.0,0.2072
661.0,0.2023
662.0,0.1972
663.0,0.1917
664.0,0.1863
665.0,0.1805
666.0,0.1746
667.0,0.1687
668.0,0.1626
669.0,0.1565
670.0,0.1499
671.0,0.1433
672.0,0.1366
673.0,0.1300
674.0,0.1231
675.0,0.1162
676.0,0.1095
677.0,0.1026
678.0,0.0958
679.0,0.0891
680.0,0.0828
681.0,0.0767
682.0,0.0708
683.0,0.0653
684.0,0.0601
685.0,0.0551
686.0,0.0507
687.0,0.0465
688.0,0.0426
689.0,0.0393
690.0,0.0361
691.0,0.0331
692.0,0.0304
693.0,0.0279
694.0,0.0258
695.0,0.0238
696.0,0.0219
697.0,0.0201
698.0,0.0187
699.0,0.0173
700.0,0.0161
701.0,0.0149
702.0,0.0138
703.0,0.0129
704.0,0.0119
705.0,0.0110
706.0,0.0102
707.0,0.0096
708.0,0.0089
709.0,0.0083
710.0,0.0078
711.0,0.0073
712.0,0.0069
713.0,0.0063
714.0,0.0060
715.0,0.0056
716.0,0.0052
717.0,0.0048
718.0,0.0047
719.0,0.0043
720.0,0.0040
721.0,0.0038
722.0,0.0035
723.0,0.0034
724.0,0.0032
725.0,0.0030
726.0,0.0027
727.0,0.0026
728.0,0.0024
729.0,0.0023
730.0,0.0022
731.0,0.0019
732.0,0.0019
733.0,0.0018
734.0,0.0017
735.0,0.0015
736.0,0.0015
737.0,0.0012
738.0,0.0013
739.0,0.0011
740.0,0.0009
741.0,0.0010
742.0,0.0011
743.0,0.0008
744.0,0.0010
745.0,0.0009
746.0,0.0007
747.0,0.0007
748.0,0.0005
749.0,0.0006
750.0,0.0005
751.0,0.0006
752.0,0.0005
753.0,0.0004
754.0,0.0004
755.0,0.0004
756.0,0.0004
757.0,0.0005
758.0,0.0005
759.0,0.0003
760.0,0.0003
761.0,0.0004
762.0,0.0003
763.0,0.0002
764.0,0.0002
765.0,0.0003
766.0,0.0001
767.0,0.0002
768.0,0.0000
769.0,0.0001
770.0,0.0000
771.0,0.0001
772.0,0.0001
773.0,0.0001
774.0,0.0000
775.0,0.0001
776.0,0.0000
777.0,-0.0000
778.0,-0.0001
779.0,0.0001
780.0,-0.0001
781.0,-0.0001
782.0,-0.0002
783.0,0.0000
784.0,-0.0002
785.0,-0.0001
786.0,-0.0000
787.0,-0.0001
788.0,-0.0001
789.0,0.0000
790.0,-0.0001
791.0,-0.0002
792.0,-0.0002
793.0,-0.0001
794.0,-0.0000
795.0,0.0000
796.0,-0.0002
797.0,-0.0000
798.0,-0.0001
799.0,-0.0002
800.0,-0.0001
