Summary
[Data Information]
Data is:,Measurement Data
Dataset Name:,RawData
Sample Name:,prova_b_28825_30min
Sample ID
Option
Analyst
Date/Time:,28/08/2025 13:00:46
Comments
Parameter File Name:,4NP_bezzetto.vspm
Report File Name
[Software Information]
Software Name:,LabSolutions UV-Vis
Version:,1.13
[Instrument Information]
Instrument Name:,UV-2600i
Instrument Type:,UV-2600 Series
Model (S/N):,UV-2600i (A12595901003)

Parameter
[Measurement]
Start:,800 nm
End:,400 nm
Data Interval:,1.0
Scan Speed:,Medium speed
Spectrum Type:,Absorbance
[Accessories]
Accessories:,None
[Advanced]
Slit Width:,2.0
Detector Unit:,Direct Receiving of Light
Light Source Switch Wavelength:,323
S/R Switch:,Standard
Stair Correction:,ON
[Repeat]
Repeat Measurement:,OFF
[Post-processing]
Spectrum Transformation:,OFF
Data Processing Table:,OFF
Print:,OFF

Wavelength (nm),Absorbance
400.0,0.0134
401.0,0.0131
402.0,0.0129
403.0,0.0128
404.0,0.0124
405.0,0.0122
406.0,0.0121
407.0,0.0121
408.0,0.0120
409.0,0.0119
410.0,0.0118
411.0,0.0118
412.0,0.0119
413.0,0.0120
414.0,0.0120
415.0,0.0121
416.0,0.0123
417.0,0.0124
418.0,0.0126
419.0,0.0128
420.0,0.0131
421.0,0.0133
422.0,0.0134
423.0,0.0138
424.0,0.0140
425.0,0.0143
426.0,0.0145
427.0,0.0148
428.0,0.0152
429.0,0.0155
430.0,0.0158
431.0,0.0161
432.0,0.0163
433.0,0.0167
434.0,0.0171
435.0,0.0174
436.0,0.0177
437.0,0.0181
438.0,0.0184
439.0,0.0189
440.0,0.0191
441.0,0.0195
442.0,0.0199
443.0,0.0202
444.0,0.0206
445.0,0.0209
446.0,0.0214
447.0,0.0217
448.0,0.0221
449.0,0.0225
450.0,0.0229
451.0,0.0233
452.0,0.0236
453.0,0.0241
454.0,0.0244
455.0,0.0249
456.0,0.0252
457.0,0.0257
458.0,0.0261
459.0,0.0265
460.0,0.0270
461.0,0.0274
462.0,0.0278
463.0,0.0283
464.0,0.0287
465.0,0.0291
466.0,0.0295
467.0,0.0300
468.0,0.0304
469.0,0.0308
470.0,0.0313
471.0,0.0316
472.0,0.0321
473.0,0.0324
474.0,0.0329
475.0,0.0334
476.0,0.0337
477.0,0.0341
478.0,0.0346
479.0,0.0351
480.0,0.0355
481.0,0.0359
482.0,0.0362
483.0,0.0367
484.0,0.0371
485.0,0.0376
486.0,0.0379
487.0,0.0384
488.0,0.0387
489.0,0.0392
490.0,0.0395
491.0,0.0400
492.0,0.0403
493.0,0.0407
494.0,0.0410
495.0,0.0413
496.0,0.0417
497.0,0.0421
498.0,0.0424
499.0,0.0427
500.0,0.0430
501.0,0.0435
502.0,0.0439
503.0,0.0442
504.0,0.0446
505.0,0.0450
506.0,0.0455
507.0,0.0460
508.0,0.0463
509.0,0.0468
510.0,0.0474
511.0,0.0480
512.0,0.0486
513.0,0.0491
514.0,0.0498
515.0,0.0505
516.0,0.0512
517.0,0.0519
518.0,0.0526
519.0,0.0535
520.0,0.0544
521.0,0.0554
522.0,0.0564
523.0,0.0574
524.0,0.0584
525.0,0.0596
526.0,0.0608
527.0,0.0620
528.0,0.0633
529.0,0.0647
530.0,0.0662
531.0,0.0677
532.0,0.0693
533.0,0.0710
534.0,0.0726
535.0,0.0745
536.0,0.0763
537.0,0.0783
538.0,0.0803
539.0,0.0823
540.0,0.0844
541.0,0.0866
542.0,0.0887
543.0,0.0911
544.0,0.0935
545.0,0.0958
546.0,0.0984
547.0,0.1012
548.0,0.1037
549.0,0.1065
550.0,0.1093
551.0,0.1124
552.0,0.1154
553.0,0.1183
554.0,0.1216
555.0,0.1249
556.0,0.1282
557.0,0.1315
558.0,0.1349
559.0,0.1384
560.0,0.1419
561.0,0.1454
562.0,0.1490
563.0,0.1528
564.0,0.1565
565.0,0.1604
566.0,0.1642
567.0,0.1683
568.0,0.1724
569.0,0.1767
570.0,0.1812
571.0,0.1858
572.0,0.1907
573.0,0.1956
574.0,0.2006
575.0,0.2059
576.0,0.2113
577.0,0.2167
578.0,0.2224
579.0,0.2283
580.0,0.2340
581.0,0.2399
582.0,0.2459
583.0,0.2519
584.0,0.2579
585.0,0.2642
586.0,0.2702
587.0,0.2766
588.0,0.2828
589.0,0.2892
590.0,0.2956
591.0,0.3021
592.0,0.3087
593.0,0.3151
594.0,0.3214
595.0,0.3276
596.0,0.3341
597.0,0.3402
598.0,0.3459
599.0,0.3518
600.0,0.3574
601.0,0.3629
602.0,0.3680
603.0,0.3728
604.0,0.3776
605.0,0.3820
606.0,0.3862
607.0,0.3904
608.0,0.3942
609.0,0.3977
610.0,0.4011
611.0,0.4042
612.0,0.4071
613.0,0.4101
614.0,0.4127
615.0,0.4154
616.0,0.4180
617.0,0.4205
618.0,0.4230
619.0,0.4255
620.0,0.4280
621.0,0.4306
622.0,0.4334
623.0,0.4363
624.0,0.4392
625.0,0.4423
626.0,0.4457
627.0,0.4492
628.0,0.4528
629.0,0.4566
630.0,0.4605
631.0,0.4645
632.0,0.4685
633.0,0.4726
634.0,0.4768
635.0,0.4812
636.0,0.4853
637.0,0.4895
638.0,0.4938
639.0,0.4979
640.0,0.5018
641.0,0.5058
642.0,0.5097
643.0,0.5134
644.0,0.5171
645.0,0.5205
646.0,0.5236
647.0,0.5262
648.0,0.5285
649.0,0.5304
650.0,0.5317
651.0,0.5325
652.0,0.5326
653.0,0.5321
654.0,0.5309
655.0,0.5290
656.0,0.5263
657.0,0.5229
658.0,0.5188
659.0,0.5139
660.0,0.5082
661.0,0.5019
662.0,0.4946
663.0,0.4866
664.0,0.4779
665.0,0.4681
666.0,0.4574
667.0,0.4461
668.0,0.4337
669.0,0.4204
670.0,0.4062
671.0,0.3912
672.0,0.3753
673.0,0.3588
674.0,0.3410
675.0,0.3233
676.0,0.3055
677.0,0.2872
678.0,0.2691
679.0,0.2501
680.0,0.2321
681.0,0.2149
682.0,0.1983
683.0,0.1824
684.0,0.1677
685.0,0.1534
686.0,0.1405
687.0,0.1283
688.0,0.1169
689.0,0.1070
690.0,0.0977
691.0,0.0892
692.0,0.0815
693.0,0.0741
694.0,0.0678
695.0,0.0620
696.0,0.0566
697.0,0.0518
698.0,0.0475
699.0,0.0437
700.0,0.0401
701.0,0.0369
702.0,0.0338
703.0,0.0311
704.0,0.0287
705.0,0.0265
706.0,0.0244
707.0,0.0227
708.0,0.0209
709.0,0.0193
710.0,0.0181
711.0,0.0168
712.0,0.0158
713.0,0.0146
714.0,0.0137
715.0,0.0128
716.0,0.0120
717.0,0.0112
718.0,0.0105
719.0,0.0099
720.0,0.0092
721.0,0.0087
722.0,0.0082
723.0,0.0078
724.0,0.0073
725.0,0.0070
726.0,0.0065
727.0,0.0062
728.0,0.0058
729.0,0.0055
730.0,0.0052
731.0,0.0050
732.0,0.0047
733.0,0.0045
734.0,0.0041
735.0,0.0040
736.0,0.0038
737.0,0.0035
738.0,0.0035
739.0,0.0032
740.0,0.0029
741.0,0.0029
742.0,0.0029
743.0,0.0027
744.0,0.0026
745.0,0.0024
746.0,0.0023
747.0,0.0022
748.0,0.0020
749.0,0.0020
750.0,0.0019
751.0,0.0018
752.0,0.0018
753.0,0.0017
754.0,0.0016
755.0,0.0016
756.0,0.0016
757.0,0.0015
758.0,0.0014
759.0,0.0013
760.0,0.0013
761.0,0.0012
762.0,0.0010
763.0,0.0010
764.0,0.0010
765.0,0.0010
766.0,0.0008
767.0,0.0008
768.0,0.0009
769.0,0.0006
770.0,0.0007
771.0,0.0007
772.0,0.0007
773.0,0.0007
774.0,0.0006
775.0,0.0006
776.0,0.0005
777.0,0.0004
778.0,0.0005
779.0,0.0004
780.0,0.0002
781.0,0.0004
782.0,0.0003
783.0,0.0004
784.0,0.0002
785.0,0.0002
786.0,0.0003
787.0,0.0003
788.0,0.0004
789.0,0.0003
790.0,0.0003
791.0,-0.0000
792.0,0.0001
793.0,0.0000
794.0,0.0002
795.0,0.0003
796.0,0.0002
797.0,0.0002
798.0,-0.0000
799.0,0.0001
800.0,-0.0002
