Summary
[Data Information]
Data is:,Measurement Data
Dataset Name:,RawData
Sample Name:,prova_ad_28825_0min
Sample ID
Option
Analyst
Date/Time:,28/08/2025 14:30:49
Comments
Parameter File Name:,4NP_bezzetto.vspm
Report File Name
[Software Information]
Software Name:,LabSolutions UV-Vis
Version:,1.13
[Instrument Information]
Instrument Name:,UV-2600i
Instrument Type:,UV-2600 Series
Model (S/N):,UV-2600i (A12595901003)

Parameter
[Measurement]
Start:,800 nm
End:,400 nm
Data Interval:,1.0
Scan Speed:,Medium speed
Spectrum Type:,Absorbance
[Accessories]
Accessories:,None
[Advanced]
Slit Width:,2.0
Detector Unit:,Direct Receiving of Light
Light Source Switch Wavelength:,323
S/R Switch:,Standard
Stair Correction:,ON
[Repeat]
Repeat Measurement:,OFF
[Post-processing]
Spectrum Transformation:,OFF
Data Processing Table:,OFF
Print:,OFF

Wavelength (nm),Absorbance
400.0,0.0049
401.0,0.0048
402.0,0.0044
403.0,0.0042
404.0,0.0036
405.0,0.0033
406.0,0.0029
407.0,0.0028
408.0,0.0024
409.0,0.0025
410.0,0.0020
411.0,0.0019
412.0,0.0018
413.0,0.0014
414.0,0.0014
415.0,0.0012
416.0,0.0014
417.0,0.0013
418.0,0.0013
419.0,0.0012
420.0,0.0017
421.0,0.0016
422.0,0.0016
423.0,0.0018
424.0,0.0018
425.0,0.0020
426.0,0.0023
427.0,0.0022
428.0,0.0023
429.0,0.0027
430.0,0.0027
431.0,0.0027
432.0,0.0029
433.0,0.0031
434.0,0.0035
435.0,0.0034
436.0,0.0040
437.0,0.0036
438.0,0.0039
439.0,0.0043
440.0,0.0045
441.0,0.0047
442.0,0.0049
443.0,0.0051
444.0,0.0055
445.0,0.0056
446.0,0.0059
447.0,0.0060
448.0,0.0063
449.0,0.0066
450.0,0.0068
451.0,0.0071
452.0,0.0073
453.0,0.0076
454.0,0.0078
455.0,0.0082
456.0,0.0085
457.0,0.0088
458.0,0.0091
459.0,0.0093
460.0,0.0097
461.0,0.0100
462.0,0.0102
463.0,0.0105
464.0,0.0107
465.0,0.0110
466.0,0.0114
467.0,0.0116
468.0,0.0120
469.0,0.0123
470.0,0.0125
471.0,0.0127
472.0,0.0130
473.0,0.0133
474.0,0.0136
475.0,0.0141
476.0,0.0143
477.0,0.0146
478.0,0.0149
479.0,0.0152
480.0,0.0156
481.0,0.0158
482.0,0.0162
483.0,0.0165
484.0,0.0168
485.0,0.0171
486.0,0.0174
487.0,0.0176
488.0,0.0179
489.0,0.0183
490.0,0.0185
491.0,0.0188
492.0,0.0191
493.0,0.0193
494.0,0.0195
495.0,0.0198
496.0,0.0198
497.0,0.0201
498.0,0.0202
499.0,0.0202
500.0,0.0204
501.0,0.0205
502.0,0.0207
503.0,0.0208
504.0,0.0209
505.0,0.0209
506.0,0.0210
507.0,0.0211
508.0,0.0212
509.0,0.0214
510.0,0.0215
511.0,0.0216
512.0,0.0217
513.0,0.0217
514.0,0.0220
515.0,0.0222
516.0,0.0224
517.0,0.0226
518.0,0.0229
519.0,0.0232
520.0,0.0235
521.0,0.0239
522.0,0.0243
523.0,0.0247
524.0,0.0251
525.0,0.0256
526.0,0.0261
527.0,0.0266
528.0,0.0272
529.0,0.0279
530.0,0.0286
531.0,0.0293
532.0,0.0301
533.0,0.0308
534.0,0.0317
535.0,0.0327
536.0,0.0336
537.0,0.0348
538.0,0.0358
539.0,0.0370
540.0,0.0381
541.0,0.0394
542.0,0.0406
543.0,0.0420
544.0,0.0434
545.0,0.0447
546.0,0.0463
547.0,0.0479
548.0,0.0495
549.0,0.0512
550.0,0.0530
551.0,0.0548
552.0,0.0566
553.0,0.0585
554.0,0.0605
555.0,0.0625
556.0,0.0645
557.0,0.0666
558.0,0.0687
559.0,0.0708
560.0,0.0730
561.0,0.0750
562.0,0.0771
563.0,0.0794
564.0,0.0816
565.0,0.0838
566.0,0.0861
567.0,0.0885
568.0,0.0909
569.0,0.0933
570.0,0.0961
571.0,0.0988
572.0,0.1019
573.0,0.1048
574.0,0.1079
575.0,0.1113
576.0,0.1147
577.0,0.1182
578.0,0.1220
579.0,0.1260
580.0,0.1300
581.0,0.1341
582.0,0.1385
583.0,0.1429
584.0,0.1474
585.0,0.1521
586.0,0.1570
587.0,0.1621
588.0,0.1674
589.0,0.1726
590.0,0.1780
591.0,0.1837
592.0,0.1895
593.0,0.1954
594.0,0.2014
595.0,0.2073
596.0,0.2137
597.0,0.2198
598.0,0.2257
599.0,0.2319
600.0,0.2377
601.0,0.2436
602.0,0.2493
603.0,0.2546
604.0,0.2597
605.0,0.2645
606.0,0.2689
607.0,0.2731
608.0,0.2771
609.0,0.2805
610.0,0.2836
611.0,0.2862
612.0,0.2885
613.0,0.2906
614.0,0.2922
615.0,0.2937
616.0,0.2949
617.0,0.2960
618.0,0.2970
619.0,0.2981
620.0,0.2989
621.0,0.2999
622.0,0.3012
623.0,0.3025
624.0,0.3041
625.0,0.3060
626.0,0.3082
627.0,0.3107
628.0,0.3134
629.0,0.3167
630.0,0.3204
631.0,0.3244
632.0,0.3288
633.0,0.3338
634.0,0.3389
635.0,0.3447
636.0,0.3508
637.0,0.3573
638.0,0.3644
639.0,0.3718
640.0,0.3793
641.0,0.3874
642.0,0.3957
643.0,0.4040
644.0,0.4127
645.0,0.4213
646.0,0.4297
647.0,0.4385
648.0,0.4468
649.0,0.4549
650.0,0.4628
651.0,0.4703
652.0,0.4774
653.0,0.4845
654.0,0.4909
655.0,0.4967
656.0,0.5022
657.0,0.5076
658.0,0.5121
659.0,0.5165
660.0,0.5201
661.0,0.5229
662.0,0.5245
663.0,0.5251
664.0,0.5244
665.0,0.5220
666.0,0.5180
667.0,0.5122
668.0,0.5043
669.0,0.4945
670.0,0.4826
671.0,0.4690
672.0,0.4533
673.0,0.4363
674.0,0.4171
675.0,0.3965
676.0,0.3754
677.0,0.3535
678.0,0.3313
679.0,0.3080
680.0,0.2854
681.0,0.2635
682.0,0.2421
683.0,0.2216
684.0,0.2024
685.0,0.1840
686.0,0.1674
687.0,0.1518
688.0,0.1372
689.0,0.1242
690.0,0.1123
691.0,0.1013
692.0,0.0915
693.0,0.0823
694.0,0.0745
695.0,0.0672
696.0,0.0605
697.0,0.0546
698.0,0.0493
699.0,0.0446
700.0,0.0403
701.0,0.0365
702.0,0.0329
703.0,0.0299
704.0,0.0270
705.0,0.0245
706.0,0.0222
707.0,0.0201
708.0,0.0183
709.0,0.0167
710.0,0.0153
711.0,0.0139
712.0,0.0128
713.0,0.0117
714.0,0.0108
715.0,0.0098
716.0,0.0091
717.0,0.0083
718.0,0.0078
719.0,0.0071
720.0,0.0065
721.0,0.0059
722.0,0.0056
723.0,0.0052
724.0,0.0048
725.0,0.0045
726.0,0.0041
727.0,0.0038
728.0,0.0035
729.0,0.0033
730.0,0.0030
731.0,0.0027
732.0,0.0025
733.0,0.0023
734.0,0.0023
735.0,0.0021
736.0,0.0019
737.0,0.0016
738.0,0.0016
739.0,0.0014
740.0,0.0014
741.0,0.0014
742.0,0.0013
743.0,0.0010
744.0,0.0011
745.0,0.0010
746.0,0.0009
747.0,0.0010
748.0,0.0008
749.0,0.0006
750.0,0.0007
751.0,0.0006
752.0,0.0006
753.0,0.0005
754.0,0.0005
755.0,0.0005
756.0,0.0004
757.0,0.0004
758.0,0.0003
759.0,0.0003
760.0,0.0003
761.0,0.0004
762.0,0.0001
763.0,0.0001
764.0,0.0000
765.0,0.0000
766.0,0.0000
767.0,-0.0000
768.0,0.0000
769.0,-0.0002
770.0,-0.0002
771.0,-0.0002
772.0,-0.0001
773.0,-0.0000
774.0,-0.0001
775.0,-0.0001
776.0,-0.0002
777.0,-0.0002
778.0,-0.0003
779.0,-0.0002
780.0,-0.0002
781.0,-0.0002
782.0,-0.0003
783.0,-0.0002
784.0,-0.0004
785.0,-0.0003
786.0,-0.0004
787.0,-0.0002
788.0,-0.0002
789.0,-0.0001
790.0,-0.0002
791.0,-0.0004
792.0,-0.0003
793.0,-0.0001
794.0,-0.0002
795.0,-0.0001
796.0,-0.0002
797.0,-0.0001
798.0,-0.0001
799.0,-0.0001
800.0,-0.0003
