Summary
[Data Information]
Data is:,Measurement Data
Dataset Name:,RawData
Sample Name:,prova6_8725_10min
Sample ID
Option
Analyst
Date/Time:,08/07/2025 12:46:52
Comments
Parameter File Name:,4NP_bezzetto.vspm
Report File Name
[Software Information]
Software Name:,LabSolutions UV-Vis
Version:,1.13
[Instrument Information]
Instrument Name:,UV-2600i
Instrument Type:,UV-2600 Series
Model (S/N):,UV-2600i (A12595901003)

Parameter
[Measurement]
Start:,800 nm
End:,400 nm
Data Interval:,1.0
Scan Speed:,Medium speed
Spectrum Type:,Absorbance
[Accessories]
Accessories:,None
[Advanced]
Slit Width:,2.0
Detector Unit:,Direct Receiving of Light
Light Source Switch Wavelength:,323
S/R Switch:,Standard
Stair Correction:,ON
[Repeat]
Repeat Measurement:,OFF
[Post-processing]
Spectrum Transformation:,OFF
Data Processing Table:,OFF
Print:,OFF

Wavelength (nm),Absorbance
400.0,0.0138
401.0,0.0133
402.0,0.0128
403.0,0.0123
404.0,0.0119
405.0,0.0114
406.0,0.0111
407.0,0.0105
408.0,0.0102
409.0,0.0098
410.0,0.0095
411.0,0.0093
412.0,0.0091
413.0,0.0089
414.0,0.0090
415.0,0.0090
416.0,0.0089
417.0,0.0091
418.0,0.0093
419.0,0.0093
420.0,0.0095
421.0,0.0097
422.0,0.0099
423.0,0.0101
424.0,0.0104
425.0,0.0107
426.0,0.0109
427.0,0.0114
428.0,0.0116
429.0,0.0119
430.0,0.0122
431.0,0.0126
432.0,0.0130
433.0,0.0134
434.0,0.0138
435.0,0.0141
436.0,0.0145
437.0,0.0150
438.0,0.0153
439.0,0.0157
440.0,0.0161
441.0,0.0166
442.0,0.0172
443.0,0.0176
444.0,0.0181
445.0,0.0186
446.0,0.0190
447.0,0.0196
448.0,0.0201
449.0,0.0205
450.0,0.0211
451.0,0.0217
452.0,0.0221
453.0,0.0227
454.0,0.0232
455.0,0.0237
456.0,0.0244
457.0,0.0248
458.0,0.0254
459.0,0.0259
460.0,0.0266
461.0,0.0272
462.0,0.0278
463.0,0.0283
464.0,0.0289
465.0,0.0295
466.0,0.0301
467.0,0.0307
468.0,0.0313
469.0,0.0319
470.0,0.0325
471.0,0.0329
472.0,0.0335
473.0,0.0341
474.0,0.0348
475.0,0.0353
476.0,0.0359
477.0,0.0364
478.0,0.0370
479.0,0.0376
480.0,0.0382
481.0,0.0387
482.0,0.0394
483.0,0.0400
484.0,0.0405
485.0,0.0412
486.0,0.0417
487.0,0.0423
488.0,0.0429
489.0,0.0433
490.0,0.0439
491.0,0.0443
492.0,0.0449
493.0,0.0453
494.0,0.0457
495.0,0.0461
496.0,0.0465
497.0,0.0467
498.0,0.0472
499.0,0.0474
500.0,0.0477
501.0,0.0481
502.0,0.0483
503.0,0.0486
504.0,0.0489
505.0,0.0492
506.0,0.0495
507.0,0.0498
508.0,0.0501
509.0,0.0505
510.0,0.0508
511.0,0.0512
512.0,0.0516
513.0,0.0520
514.0,0.0525
515.0,0.0530
516.0,0.0536
517.0,0.0542
518.0,0.0549
519.0,0.0556
520.0,0.0564
521.0,0.0573
522.0,0.0582
523.0,0.0591
524.0,0.0601
525.0,0.0612
526.0,0.0623
527.0,0.0637
528.0,0.0650
529.0,0.0665
530.0,0.0680
531.0,0.0695
532.0,0.0713
533.0,0.0730
534.0,0.0749
535.0,0.0769
536.0,0.0789
537.0,0.0812
538.0,0.0833
539.0,0.0856
540.0,0.0882
541.0,0.0907
542.0,0.0933
543.0,0.0960
544.0,0.0989
545.0,0.1017
546.0,0.1047
547.0,0.1081
548.0,0.1112
549.0,0.1147
550.0,0.1181
551.0,0.1219
552.0,0.1256
553.0,0.1293
554.0,0.1332
555.0,0.1372
556.0,0.1412
557.0,0.1453
558.0,0.1494
559.0,0.1535
560.0,0.1578
561.0,0.1621
562.0,0.1664
563.0,0.1708
564.0,0.1754
565.0,0.1801
566.0,0.1848
567.0,0.1897
568.0,0.1947
569.0,0.2000
570.0,0.2054
571.0,0.2113
572.0,0.2173
573.0,0.2235
574.0,0.2301
575.0,0.2369
576.0,0.2438
577.0,0.2511
578.0,0.2586
579.0,0.2665
580.0,0.2750
581.0,0.2830
582.0,0.2917
583.0,0.3005
584.0,0.3092
585.0,0.3187
586.0,0.3280
587.0,0.3378
588.0,0.3478
589.0,0.3579
590.0,0.3681
591.0,0.3787
592.0,0.3895
593.0,0.4007
594.0,0.4114
595.0,0.4222
596.0,0.4333
597.0,0.4440
598.0,0.4543
599.0,0.4648
600.0,0.4748
601.0,0.4848
602.0,0.4941
603.0,0.5025
604.0,0.5110
605.0,0.5188
606.0,0.5260
607.0,0.5328
608.0,0.5389
609.0,0.5444
610.0,0.5494
611.0,0.5536
612.0,0.5573
613.0,0.5607
614.0,0.5636
615.0,0.5661
616.0,0.5685
617.0,0.5706
618.0,0.5726
619.0,0.5747
620.0,0.5768
621.0,0.5789
622.0,0.5816
623.0,0.5842
624.0,0.5877
625.0,0.5914
626.0,0.5956
627.0,0.6004
628.0,0.6056
629.0,0.6115
630.0,0.6179
631.0,0.6249
632.0,0.6326
633.0,0.6407
634.0,0.6491
635.0,0.6587
636.0,0.6686
637.0,0.6790
638.0,0.6899
639.0,0.7013
640.0,0.7127
641.0,0.7249
642.0,0.7369
643.0,0.7494
644.0,0.7623
645.0,0.7746
646.0,0.7865
647.0,0.7986
648.0,0.8103
649.0,0.8208
650.0,0.8311
651.0,0.8408
652.0,0.8496
653.0,0.8576
654.0,0.8646
655.0,0.8706
656.0,0.8757
657.0,0.8799
658.0,0.8833
659.0,0.8854
660.0,0.8864
661.0,0.8858
662.0,0.8837
663.0,0.8799
664.0,0.8742
665.0,0.8663
666.0,0.8556
667.0,0.8425
668.0,0.8268
669.0,0.8084
670.0,0.7872
671.0,0.7637
672.0,0.7373
673.0,0.7089
674.0,0.6774
675.0,0.6447
676.0,0.6112
677.0,0.5764
678.0,0.5417
679.0,0.5049
680.0,0.4688
681.0,0.4342
682.0,0.4006
683.0,0.3684
684.0,0.3383
685.0,0.3095
686.0,0.2826
687.0,0.2573
688.0,0.2338
689.0,0.2132
690.0,0.1941
691.0,0.1766
692.0,0.1607
693.0,0.1459
694.0,0.1323
695.0,0.1201
696.0,0.1090
697.0,0.0990
698.0,0.0905
699.0,0.0822
700.0,0.0749
701.0,0.0685
702.0,0.0623
703.0,0.0568
704.0,0.0519
705.0,0.0473
706.0,0.0434
707.0,0.0400
708.0,0.0366
709.0,0.0337
710.0,0.0311
711.0,0.0286
712.0,0.0265
713.0,0.0246
714.0,0.0228
715.0,0.0211
716.0,0.0198
717.0,0.0183
718.0,0.0170
719.0,0.0159
720.0,0.0150
721.0,0.0141
722.0,0.0131
723.0,0.0124
724.0,0.0115
725.0,0.0109
726.0,0.0102
727.0,0.0096
728.0,0.0090
729.0,0.0086
730.0,0.0079
731.0,0.0076
732.0,0.0073
733.0,0.0069
734.0,0.0065
735.0,0.0062
736.0,0.0058
737.0,0.0056
738.0,0.0052
739.0,0.0050
740.0,0.0048
741.0,0.0046
742.0,0.0044
743.0,0.0042
744.0,0.0040
745.0,0.0038
746.0,0.0036
747.0,0.0033
748.0,0.0032
749.0,0.0029
750.0,0.0029
751.0,0.0028
752.0,0.0026
753.0,0.0026
754.0,0.0025
755.0,0.0024
756.0,0.0023
757.0,0.0022
758.0,0.0021
759.0,0.0019
760.0,0.0018
761.0,0.0016
762.0,0.0017
763.0,0.0015
764.0,0.0015
765.0,0.0015
766.0,0.0012
767.0,0.0012
768.0,0.0013
769.0,0.0011
770.0,0.0010
771.0,0.0010
772.0,0.0010
773.0,0.0008
774.0,0.0007
775.0,0.0009
776.0,0.0007
777.0,0.0009
778.0,0.0006
779.0,0.0007
780.0,0.0005
781.0,0.0006
782.0,0.0007
783.0,0.0006
784.0,0.0005
785.0,0.0004
786.0,0.0006
787.0,0.0003
788.0,0.0004
789.0,0.0005
790.0,0.0003
791.0,0.0005
792.0,0.0003
793.0,0.0003
794.0,0.0004
795.0,0.0000
796.0,0.0001
797.0,-0.0000
798.0,-0.0000
799.0,0.0002
800.0,0.0001
