Summary
[Data Information]
Data is:,Measurement Data
Dataset Name:,RawData
Sample Name:,prova_b_28825_-30min
Sample ID
Option
Analyst
Date/Time:,28/08/2025 13:07:10
Comments
Parameter File Name:,4NP_bezzetto.vspm
Report File Name
[Software Information]
Software Name:,LabSolutions UV-Vis
Version:,1.13
[Instrument Information]
Instrument Name:,UV-2600i
Instrument Type:,UV-2600 Series
Model (S/N):,UV-2600i (A12595901003)

Parameter
[Measurement]
Start:,800 nm
End:,400 nm
Data Interval:,1.0
Scan Speed:,Medium speed
Spectrum Type:,Absorbance
[Accessories]
Accessories:,None
[Advanced]
Slit Width:,2.0
Detector Unit:,Direct Receiving of Light
Light Source Switch Wavelength:,323
S/R Switch:,Standard
Stair Correction:,ON
[Repeat]
Repeat Measurement:,OFF
[Post-processing]
Spectrum Transformation:,OFF
Data Processing Table:,OFF
Print:,OFF

Wavelength (nm),Absorbance
400.0,0.0150
401.0,0.0142
402.0,0.0134
403.0,0.0126
404.0,0.0117
405.0,0.0107
406.0,0.0099
407.0,0.0091
408.0,0.0083
409.0,0.0076
410.0,0.0071
411.0,0.0065
412.0,0.0060
413.0,0.0057
414.0,0.0053
415.0,0.0051
416.0,0.0051
417.0,0.0049
418.0,0.0049
419.0,0.0049
420.0,0.0051
421.0,0.0051
422.0,0.0052
423.0,0.0054
424.0,0.0056
425.0,0.0059
426.0,0.0062
427.0,0.0064
428.0,0.0067
429.0,0.0071
430.0,0.0074
431.0,0.0078
432.0,0.0081
433.0,0.0085
434.0,0.0088
435.0,0.0093
436.0,0.0098
437.0,0.0102
438.0,0.0108
439.0,0.0113
440.0,0.0117
441.0,0.0122
442.0,0.0128
443.0,0.0133
444.0,0.0138
445.0,0.0144
446.0,0.0151
447.0,0.0156
448.0,0.0162
449.0,0.0169
450.0,0.0176
451.0,0.0182
452.0,0.0188
453.0,0.0196
454.0,0.0203
455.0,0.0209
456.0,0.0217
457.0,0.0224
458.0,0.0232
459.0,0.0238
460.0,0.0246
461.0,0.0253
462.0,0.0260
463.0,0.0268
464.0,0.0276
465.0,0.0282
466.0,0.0289
467.0,0.0297
468.0,0.0305
469.0,0.0312
470.0,0.0320
471.0,0.0327
472.0,0.0335
473.0,0.0342
474.0,0.0349
475.0,0.0357
476.0,0.0364
477.0,0.0373
478.0,0.0381
479.0,0.0388
480.0,0.0398
481.0,0.0406
482.0,0.0414
483.0,0.0422
484.0,0.0430
485.0,0.0439
486.0,0.0446
487.0,0.0454
488.0,0.0461
489.0,0.0469
490.0,0.0475
491.0,0.0483
492.0,0.0489
493.0,0.0495
494.0,0.0499
495.0,0.0504
496.0,0.0509
497.0,0.0513
498.0,0.0516
499.0,0.0519
500.0,0.0522
501.0,0.0525
502.0,0.0528
503.0,0.0528
504.0,0.0530
505.0,0.0531
506.0,0.0533
507.0,0.0535
508.0,0.0536
509.0,0.0538
510.0,0.0540
511.0,0.0541
512.0,0.0544
513.0,0.0546
514.0,0.0550
515.0,0.0553
516.0,0.0557
517.0,0.0563
518.0,0.0569
519.0,0.0574
520.0,0.0581
521.0,0.0589
522.0,0.0598
523.0,0.0607
524.0,0.0617
525.0,0.0629
526.0,0.0640
527.0,0.0654
528.0,0.0668
529.0,0.0684
530.0,0.0702
531.0,0.0718
532.0,0.0738
533.0,0.0758
534.0,0.0779
535.0,0.0802
536.0,0.0827
537.0,0.0853
538.0,0.0880
539.0,0.0908
540.0,0.0938
541.0,0.0968
542.0,0.1000
543.0,0.1034
544.0,0.1070
545.0,0.1106
546.0,0.1145
547.0,0.1187
548.0,0.1230
549.0,0.1272
550.0,0.1317
551.0,0.1366
552.0,0.1413
553.0,0.1461
554.0,0.1513
555.0,0.1564
556.0,0.1617
557.0,0.1668
558.0,0.1720
559.0,0.1774
560.0,0.1828
561.0,0.1880
562.0,0.1934
563.0,0.1990
564.0,0.2045
565.0,0.2102
566.0,0.2160
567.0,0.2220
568.0,0.2280
569.0,0.2344
570.0,0.2413
571.0,0.2484
572.0,0.2559
573.0,0.2637
574.0,0.2718
575.0,0.2804
576.0,0.2894
577.0,0.2987
578.0,0.3087
579.0,0.3193
580.0,0.3301
581.0,0.3412
582.0,0.3530
583.0,0.3652
584.0,0.3774
585.0,0.3908
586.0,0.4041
587.0,0.4183
588.0,0.4328
589.0,0.4476
590.0,0.4629
591.0,0.4793
592.0,0.4960
593.0,0.5133
594.0,0.5302
595.0,0.5475
596.0,0.5657
597.0,0.5836
598.0,0.6007
599.0,0.6188
600.0,0.6359
601.0,0.6531
602.0,0.6691
603.0,0.6840
604.0,0.6987
605.0,0.7119
606.0,0.7241
607.0,0.7353
608.0,0.7451
609.0,0.7534
610.0,0.7604
611.0,0.7657
612.0,0.7699
613.0,0.7730
614.0,0.7748
615.0,0.7760
616.0,0.7761
617.0,0.7756
618.0,0.7747
619.0,0.7736
620.0,0.7724
621.0,0.7713
622.0,0.7705
623.0,0.7702
624.0,0.7706
625.0,0.7719
626.0,0.7741
627.0,0.7772
628.0,0.7814
629.0,0.7869
630.0,0.7936
631.0,0.8013
632.0,0.8100
633.0,0.8202
634.0,0.8317
635.0,0.8451
636.0,0.8594
637.0,0.8748
638.0,0.8918
639.0,0.9099
640.0,0.9286
641.0,0.9486
642.0,0.9696
643.0,0.9912
644.0,1.0138
645.0,1.0361
646.0,1.0580
647.0,1.0812
648.0,1.1035
649.0,1.1250
650.0,1.1467
651.0,1.1679
652.0,1.1878
653.0,1.2077
654.0,1.2264
655.0,1.2437
656.0,1.2608
657.0,1.2771
658.0,1.2919
659.0,1.3063
660.0,1.3188
661.0,1.3291
662.0,1.3370
663.0,1.3419
664.0,1.3431
665.0,1.3401
666.0,1.3325
667.0,1.3205
668.0,1.3024
669.0,1.2792
670.0,1.2508
671.0,1.2169
672.0,1.1780
673.0,1.1348
674.0,1.0856
675.0,1.0340
676.0,0.9807
677.0,0.9243
678.0,0.8676
679.0,0.8072
680.0,0.7481
681.0,0.6914
682.0,0.6360
683.0,0.5827
684.0,0.5338
685.0,0.4860
686.0,0.4420
687.0,0.4008
688.0,0.3625
689.0,0.3290
690.0,0.2978
691.0,0.2692
692.0,0.2436
693.0,0.2194
694.0,0.1984
695.0,0.1795
696.0,0.1618
697.0,0.1463
698.0,0.1330
699.0,0.1203
700.0,0.1091
701.0,0.0993
702.0,0.0899
703.0,0.0818
704.0,0.0746
705.0,0.0680
706.0,0.0620
707.0,0.0569
708.0,0.0521
709.0,0.0479
710.0,0.0442
711.0,0.0408
712.0,0.0378
713.0,0.0350
714.0,0.0326
715.0,0.0303
716.0,0.0282
717.0,0.0264
718.0,0.0248
719.0,0.0232
720.0,0.0217
721.0,0.0203
722.0,0.0191
723.0,0.0180
724.0,0.0170
725.0,0.0160
726.0,0.0150
727.0,0.0142
728.0,0.0135
729.0,0.0128
730.0,0.0120
731.0,0.0114
732.0,0.0107
733.0,0.0102
734.0,0.0096
735.0,0.0091
736.0,0.0087
737.0,0.0081
738.0,0.0079
739.0,0.0075
740.0,0.0068
741.0,0.0067
742.0,0.0064
743.0,0.0059
744.0,0.0058
745.0,0.0055
746.0,0.0052
747.0,0.0049
748.0,0.0047
749.0,0.0044
750.0,0.0042
751.0,0.0040
752.0,0.0038
753.0,0.0035
754.0,0.0034
755.0,0.0033
756.0,0.0032
757.0,0.0029
758.0,0.0028
759.0,0.0027
760.0,0.0026
761.0,0.0023
762.0,0.0022
763.0,0.0020
764.0,0.0020
765.0,0.0020
766.0,0.0018
767.0,0.0017
768.0,0.0016
769.0,0.0013
770.0,0.0013
771.0,0.0013
772.0,0.0012
773.0,0.0012
774.0,0.0011
775.0,0.0011
776.0,0.0007
777.0,0.0008
778.0,0.0008
779.0,0.0008
780.0,0.0007
781.0,0.0007
782.0,0.0005
783.0,0.0007
784.0,0.0004
785.0,0.0005
786.0,0.0003
787.0,0.0004
788.0,0.0005
789.0,0.0004
790.0,0.0003
791.0,0.0001
792.0,0.0002
793.0,0.0003
794.0,0.0003
795.0,0.0002
796.0,0.0000
797.0,0.0002
798.0,-0.0000
799.0,-0.0000
800.0,-0.0001
