Summary
[Data Information]
Data is:,Measurement Data
Dataset Name:,RawData
Sample Name:,prova5_8725_20min
Sample ID
Option
Analyst
Date/Time:,08/07/2025 10:48:24
Comments
Parameter File Name:,4NP_bezzetto.vspm
Report File Name
[Software Information]
Software Name:,LabSolutions UV-Vis
Version:,1.13
[Instrument Information]
Instrument Name:,UV-2600i
Instrument Type:,UV-2600 Series
Model (S/N):,UV-2600i (A12595901003)

Parameter
[Measurement]
Start:,800 nm
End:,400 nm
Data Interval:,1.0
Scan Speed:,Medium speed
Spectrum Type:,Absorbance
[Accessories]
Accessories:,None
[Advanced]
Slit Width:,2.0
Detector Unit:,Direct Receiving of Light
Light Source Switch Wavelength:,323
S/R Switch:,Standard
Stair Correction:,ON
[Repeat]
Repeat Measurement:,OFF
[Post-processing]
Spectrum Transformation:,OFF
Data Processing Table:,OFF
Print:,OFF

Wavelength (nm),Absorbance
400.0,0.0071
401.0,0.0072
402.0,0.0071
403.0,0.0070
404.0,0.0072
405.0,0.0071
406.0,0.0073
407.0,0.0072
408.0,0.0073
409.0,0.0073
410.0,0.0074
411.0,0.0074
412.0,0.0075
413.0,0.0076
414.0,0.0077
415.0,0.0079
416.0,0.0079
417.0,0.0081
418.0,0.0083
419.0,0.0084
420.0,0.0084
421.0,0.0086
422.0,0.0089
423.0,0.0089
424.0,0.0091
425.0,0.0093
426.0,0.0095
427.0,0.0097
428.0,0.0098
429.0,0.0099
430.0,0.0102
431.0,0.0103
432.0,0.0105
433.0,0.0107
434.0,0.0109
435.0,0.0111
436.0,0.0112
437.0,0.0114
438.0,0.0115
439.0,0.0117
440.0,0.0119
441.0,0.0120
442.0,0.0123
443.0,0.0123
444.0,0.0126
445.0,0.0127
446.0,0.0128
447.0,0.0131
448.0,0.0132
449.0,0.0134
450.0,0.0135
451.0,0.0137
452.0,0.0138
453.0,0.0140
454.0,0.0141
455.0,0.0144
456.0,0.0145
457.0,0.0147
458.0,0.0148
459.0,0.0149
460.0,0.0151
461.0,0.0153
462.0,0.0156
463.0,0.0156
464.0,0.0158
465.0,0.0159
466.0,0.0160
467.0,0.0163
468.0,0.0164
469.0,0.0166
470.0,0.0167
471.0,0.0168
472.0,0.0170
473.0,0.0172
474.0,0.0171
475.0,0.0174
476.0,0.0176
477.0,0.0177
478.0,0.0178
479.0,0.0179
480.0,0.0180
481.0,0.0182
482.0,0.0183
483.0,0.0184
484.0,0.0186
485.0,0.0187
486.0,0.0189
487.0,0.0190
488.0,0.0192
489.0,0.0193
490.0,0.0195
491.0,0.0195
492.0,0.0198
493.0,0.0199
494.0,0.0201
495.0,0.0202
496.0,0.0204
497.0,0.0205
498.0,0.0207
499.0,0.0209
500.0,0.0210
501.0,0.0211
502.0,0.0214
503.0,0.0216
504.0,0.0218
505.0,0.0221
506.0,0.0222
507.0,0.0225
508.0,0.0228
509.0,0.0230
510.0,0.0233
511.0,0.0235
512.0,0.0238
513.0,0.0241
514.0,0.0244
515.0,0.0247
516.0,0.0252
517.0,0.0254
518.0,0.0258
519.0,0.0262
520.0,0.0266
521.0,0.0270
522.0,0.0275
523.0,0.0279
524.0,0.0284
525.0,0.0288
526.0,0.0293
527.0,0.0299
528.0,0.0305
529.0,0.0310
530.0,0.0317
531.0,0.0322
532.0,0.0329
533.0,0.0336
534.0,0.0343
535.0,0.0350
536.0,0.0357
537.0,0.0365
538.0,0.0372
539.0,0.0380
540.0,0.0388
541.0,0.0397
542.0,0.0406
543.0,0.0415
544.0,0.0424
545.0,0.0434
546.0,0.0443
547.0,0.0453
548.0,0.0463
549.0,0.0475
550.0,0.0486
551.0,0.0498
552.0,0.0510
553.0,0.0522
554.0,0.0533
555.0,0.0546
556.0,0.0558
557.0,0.0572
558.0,0.0584
559.0,0.0596
560.0,0.0610
561.0,0.0624
562.0,0.0637
563.0,0.0651
564.0,0.0664
565.0,0.0679
566.0,0.0692
567.0,0.0707
568.0,0.0722
569.0,0.0738
570.0,0.0753
571.0,0.0769
572.0,0.0786
573.0,0.0803
574.0,0.0821
575.0,0.0839
576.0,0.0856
577.0,0.0875
578.0,0.0893
579.0,0.0911
580.0,0.0932
581.0,0.0951
582.0,0.0970
583.0,0.0990
584.0,0.1007
585.0,0.1028
586.0,0.1047
587.0,0.1067
588.0,0.1087
589.0,0.1107
590.0,0.1127
591.0,0.1147
592.0,0.1167
593.0,0.1187
594.0,0.1208
595.0,0.1228
596.0,0.1248
597.0,0.1268
598.0,0.1286
599.0,0.1306
600.0,0.1324
601.0,0.1343
602.0,0.1360
603.0,0.1377
604.0,0.1393
605.0,0.1409
606.0,0.1425
607.0,0.1440
608.0,0.1453
609.0,0.1467
610.0,0.1480
611.0,0.1493
612.0,0.1504
613.0,0.1516
614.0,0.1527
615.0,0.1538
616.0,0.1549
617.0,0.1559
618.0,0.1569
619.0,0.1578
620.0,0.1588
621.0,0.1595
622.0,0.1606
623.0,0.1614
624.0,0.1623
625.0,0.1632
626.0,0.1640
627.0,0.1650
628.0,0.1658
629.0,0.1666
630.0,0.1675
631.0,0.1682
632.0,0.1691
633.0,0.1698
634.0,0.1705
635.0,0.1711
636.0,0.1716
637.0,0.1721
638.0,0.1725
639.0,0.1729
640.0,0.1729
641.0,0.1732
642.0,0.1732
643.0,0.1733
644.0,0.1732
645.0,0.1731
646.0,0.1729
647.0,0.1726
648.0,0.1721
649.0,0.1715
650.0,0.1708
651.0,0.1699
652.0,0.1687
653.0,0.1674
654.0,0.1657
655.0,0.1641
656.0,0.1620
657.0,0.1598
658.0,0.1575
659.0,0.1548
660.0,0.1519
661.0,0.1488
662.0,0.1455
663.0,0.1421
664.0,0.1385
665.0,0.1348
666.0,0.1307
667.0,0.1266
668.0,0.1222
669.0,0.1178
670.0,0.1130
671.0,0.1083
672.0,0.1033
673.0,0.0983
674.0,0.0930
675.0,0.0876
676.0,0.0825
677.0,0.0773
678.0,0.0720
679.0,0.0668
680.0,0.0617
681.0,0.0570
682.0,0.0523
683.0,0.0479
684.0,0.0439
685.0,0.0399
686.0,0.0364
687.0,0.0331
688.0,0.0300
689.0,0.0272
690.0,0.0247
691.0,0.0225
692.0,0.0204
693.0,0.0186
694.0,0.0168
695.0,0.0152
696.0,0.0138
697.0,0.0126
698.0,0.0115
699.0,0.0104
700.0,0.0094
701.0,0.0086
702.0,0.0078
703.0,0.0072
704.0,0.0066
705.0,0.0060
706.0,0.0054
707.0,0.0051
708.0,0.0045
709.0,0.0042
710.0,0.0037
711.0,0.0035
712.0,0.0032
713.0,0.0030
714.0,0.0027
715.0,0.0024
716.0,0.0022
717.0,0.0021
718.0,0.0018
719.0,0.0017
720.0,0.0017
721.0,0.0015
722.0,0.0013
723.0,0.0013
724.0,0.0011
725.0,0.0010
726.0,0.0009
727.0,0.0008
728.0,0.0007
729.0,0.0007
730.0,0.0005
731.0,0.0005
732.0,0.0006
733.0,0.0005
734.0,0.0004
735.0,0.0004
736.0,0.0003
737.0,0.0003
738.0,0.0001
739.0,0.0002
740.0,0.0002
741.0,0.0002
742.0,0.0002
743.0,0.0001
744.0,0.0003
745.0,0.0002
746.0,0.0000
747.0,0.0000
748.0,0.0001
749.0,-0.0001
750.0,0.0000
751.0,-0.0000
752.0,-0.0000
753.0,0.0001
754.0,-0.0001
755.0,0.0000
756.0,0.0001
757.0,0.0001
758.0,0.0001
759.0,-0.0000
760.0,0.0000
761.0,0.0000
762.0,0.0000
763.0,0.0000
764.0,-0.0001
765.0,0.0001
766.0,-0.0002
767.0,-0.0001
768.0,0.0000
769.0,-0.0003
770.0,-0.0000
771.0,0.0000
772.0,-0.0001
773.0,-0.0000
774.0,-0.0001
775.0,-0.0001
776.0,-0.0002
777.0,0.0001
778.0,-0.0001
779.0,-0.0001
780.0,-0.0001
781.0,-0.0000
782.0,-0.0001
783.0,-0.0001
784.0,-0.0001
785.0,-0.0001
786.0,0.0000
787.0,-0.0002
788.0,-0.0001
789.0,0.0000
790.0,0.0000
791.0,-0.0000
792.0,-0.0000
793.0,-0.0002
794.0,0.0001
795.0,-0.0003
796.0,-0.0001
797.0,-0.0002
798.0,-0.0002
799.0,-0.0000
800.0,0.0001
