Summary
[Data Information]
Data is:,Measurement Data
Dataset Name:,RawData
Sample Name:,prova_c_27825_0min
Sample ID
Option
Analyst
Date/Time:,27/08/2025 14:22:08
Comments
Parameter File Name:,4NP_bezzetto.vspm
Report File Name
[Software Information]
Software Name:,LabSolutions UV-Vis
Version:,1.13
[Instrument Information]
Instrument Name:,UV-2600i
Instrument Type:,UV-2600 Series
Model (S/N):,UV-2600i (A12595901003)

Parameter
[Measurement]
Start:,800 nm
End:,400 nm
Data Interval:,1.0
Scan Speed:,Medium speed
Spectrum Type:,Absorbance
[Accessories]
Accessories:,None
[Advanced]
Slit Width:,2.0
Detector Unit:,Direct Receiving of Light
Light Source Switch Wavelength:,323
S/R Switch:,Standard
Stair Correction:,ON
[Repeat]
Repeat Measurement:,OFF
[Post-processing]
Spectrum Transformation:,OFF
Data Processing Table:,OFF
Print:,OFF

Wavelength (nm),Absorbance
400.0,0.0084
401.0,0.0082
402.0,0.0077
403.0,0.0073
404.0,0.0068
405.0,0.0064
406.0,0.0059
407.0,0.0054
408.0,0.0050
409.0,0.0048
410.0,0.0044
411.0,0.0041
412.0,0.0039
413.0,0.0037
414.0,0.0035
415.0,0.0034
416.0,0.0034
417.0,0.0033
418.0,0.0033
419.0,0.0034
420.0,0.0033
421.0,0.0035
422.0,0.0035
423.0,0.0037
424.0,0.0037
425.0,0.0039
426.0,0.0039
427.0,0.0041
428.0,0.0044
429.0,0.0044
430.0,0.0045
431.0,0.0048
432.0,0.0050
433.0,0.0051
434.0,0.0053
435.0,0.0056
436.0,0.0057
437.0,0.0060
438.0,0.0062
439.0,0.0064
440.0,0.0067
441.0,0.0069
442.0,0.0073
443.0,0.0075
444.0,0.0078
445.0,0.0081
446.0,0.0084
447.0,0.0087
448.0,0.0090
449.0,0.0094
450.0,0.0097
451.0,0.0101
452.0,0.0103
453.0,0.0106
454.0,0.0110
455.0,0.0114
456.0,0.0118
457.0,0.0121
458.0,0.0125
459.0,0.0129
460.0,0.0133
461.0,0.0136
462.0,0.0139
463.0,0.0143
464.0,0.0146
465.0,0.0151
466.0,0.0154
467.0,0.0158
468.0,0.0162
469.0,0.0164
470.0,0.0168
471.0,0.0173
472.0,0.0176
473.0,0.0179
474.0,0.0183
475.0,0.0187
476.0,0.0190
477.0,0.0195
478.0,0.0199
479.0,0.0203
480.0,0.0206
481.0,0.0210
482.0,0.0215
483.0,0.0219
484.0,0.0223
485.0,0.0227
486.0,0.0230
487.0,0.0235
488.0,0.0238
489.0,0.0241
490.0,0.0245
491.0,0.0248
492.0,0.0251
493.0,0.0254
494.0,0.0256
495.0,0.0259
496.0,0.0259
497.0,0.0262
498.0,0.0264
499.0,0.0265
500.0,0.0266
501.0,0.0267
502.0,0.0267
503.0,0.0268
504.0,0.0269
505.0,0.0270
506.0,0.0270
507.0,0.0270
508.0,0.0272
509.0,0.0271
510.0,0.0272
511.0,0.0272
512.0,0.0273
513.0,0.0273
514.0,0.0275
515.0,0.0277
516.0,0.0279
517.0,0.0280
518.0,0.0283
519.0,0.0284
520.0,0.0288
521.0,0.0291
522.0,0.0295
523.0,0.0299
524.0,0.0304
525.0,0.0308
526.0,0.0315
527.0,0.0321
528.0,0.0328
529.0,0.0335
530.0,0.0342
531.0,0.0350
532.0,0.0360
533.0,0.0368
534.0,0.0379
535.0,0.0390
536.0,0.0402
537.0,0.0414
538.0,0.0426
539.0,0.0440
540.0,0.0454
541.0,0.0468
542.0,0.0484
543.0,0.0499
544.0,0.0517
545.0,0.0535
546.0,0.0553
547.0,0.0573
548.0,0.0592
549.0,0.0613
550.0,0.0635
551.0,0.0658
552.0,0.0681
553.0,0.0704
554.0,0.0729
555.0,0.0754
556.0,0.0779
557.0,0.0804
558.0,0.0829
559.0,0.0856
560.0,0.0881
561.0,0.0907
562.0,0.0933
563.0,0.0961
564.0,0.0988
565.0,0.1016
566.0,0.1044
567.0,0.1074
568.0,0.1103
569.0,0.1134
570.0,0.1167
571.0,0.1202
572.0,0.1237
573.0,0.1275
574.0,0.1315
575.0,0.1356
576.0,0.1400
577.0,0.1444
578.0,0.1491
579.0,0.1540
580.0,0.1593
581.0,0.1645
582.0,0.1701
583.0,0.1758
584.0,0.1815
585.0,0.1877
586.0,0.1940
587.0,0.2005
588.0,0.2074
589.0,0.2145
590.0,0.2216
591.0,0.2292
592.0,0.2368
593.0,0.2447
594.0,0.2527
595.0,0.2607
596.0,0.2692
597.0,0.2776
598.0,0.2856
599.0,0.2939
600.0,0.3020
601.0,0.3100
602.0,0.3178
603.0,0.3249
604.0,0.3321
605.0,0.3388
606.0,0.3447
607.0,0.3505
608.0,0.3557
609.0,0.3603
610.0,0.3643
611.0,0.3678
612.0,0.3705
613.0,0.3731
614.0,0.3750
615.0,0.3767
616.0,0.3780
617.0,0.3790
618.0,0.3798
619.0,0.3805
620.0,0.3813
621.0,0.3821
622.0,0.3831
623.0,0.3843
624.0,0.3860
625.0,0.3878
626.0,0.3903
627.0,0.3932
628.0,0.3965
629.0,0.4004
630.0,0.4049
631.0,0.4098
632.0,0.4153
633.0,0.4215
634.0,0.4284
635.0,0.4360
636.0,0.4442
637.0,0.4529
638.0,0.4622
639.0,0.4723
640.0,0.4826
641.0,0.4936
642.0,0.5052
643.0,0.5168
644.0,0.5289
645.0,0.5409
646.0,0.5526
647.0,0.5650
648.0,0.5769
649.0,0.5884
650.0,0.5998
651.0,0.6110
652.0,0.6217
653.0,0.6321
654.0,0.6421
655.0,0.6512
656.0,0.6602
657.0,0.6688
658.0,0.6767
659.0,0.6841
660.0,0.6906
661.0,0.6960
662.0,0.7000
663.0,0.7026
664.0,0.7031
665.0,0.7016
666.0,0.6976
667.0,0.6910
668.0,0.6817
669.0,0.6697
670.0,0.6546
671.0,0.6366
672.0,0.6161
673.0,0.5936
674.0,0.5681
675.0,0.5411
676.0,0.5129
677.0,0.4833
678.0,0.4528
679.0,0.4213
680.0,0.3903
681.0,0.3610
682.0,0.3317
683.0,0.3039
684.0,0.2772
685.0,0.2523
686.0,0.2290
687.0,0.2072
688.0,0.1871
689.0,0.1698
690.0,0.1534
691.0,0.1380
692.0,0.1245
693.0,0.1117
694.0,0.1005
695.0,0.0908
696.0,0.0815
697.0,0.0735
698.0,0.0663
699.0,0.0595
700.0,0.0537
701.0,0.0486
702.0,0.0437
703.0,0.0394
704.0,0.0357
705.0,0.0322
706.0,0.0291
707.0,0.0266
708.0,0.0240
709.0,0.0220
710.0,0.0201
711.0,0.0184
712.0,0.0168
713.0,0.0155
714.0,0.0142
715.0,0.0131
716.0,0.0121
717.0,0.0113
718.0,0.0105
719.0,0.0098
720.0,0.0091
721.0,0.0085
722.0,0.0079
723.0,0.0074
724.0,0.0069
725.0,0.0065
726.0,0.0061
727.0,0.0058
728.0,0.0053
729.0,0.0051
730.0,0.0048
731.0,0.0046
732.0,0.0041
733.0,0.0041
734.0,0.0038
735.0,0.0036
736.0,0.0034
737.0,0.0033
738.0,0.0031
739.0,0.0031
740.0,0.0029
741.0,0.0026
742.0,0.0026
743.0,0.0025
744.0,0.0024
745.0,0.0022
746.0,0.0021
747.0,0.0020
748.0,0.0020
749.0,0.0019
750.0,0.0018
751.0,0.0017
752.0,0.0016
753.0,0.0014
754.0,0.0015
755.0,0.0016
756.0,0.0014
757.0,0.0013
758.0,0.0014
759.0,0.0012
760.0,0.0012
761.0,0.0010
762.0,0.0009
763.0,0.0008
764.0,0.0009
765.0,0.0008
766.0,0.0007
767.0,0.0009
768.0,0.0008
769.0,0.0008
770.0,0.0008
771.0,0.0008
772.0,0.0007
773.0,0.0006
774.0,0.0007
775.0,0.0006
776.0,0.0005
777.0,0.0006
778.0,0.0006
779.0,0.0004
780.0,0.0004
781.0,0.0005
782.0,0.0005
783.0,0.0005
784.0,0.0004
785.0,0.0004
786.0,0.0003
787.0,0.0003
788.0,0.0003
789.0,0.0004
790.0,0.0003
791.0,0.0002
792.0,0.0003
793.0,0.0003
794.0,0.0002
795.0,0.0000
796.0,0.0003
797.0,0.0002
798.0,0.0002
799.0,0.0002
800.0,0.0002
