Summary
[Data Information]
Data is:,Measurement Data
Dataset Name:,RawData
Sample Name:,prova_ab_27825_10min
Sample ID
Option
Analyst
Date/Time:,27/08/2025 16:03:44
Comments
Parameter File Name:,4NP_bezzetto.vspm
Report File Name
[Software Information]
Software Name:,LabSolutions UV-Vis
Version:,1.13
[Instrument Information]
Instrument Name:,UV-2600i
Instrument Type:,UV-2600 Series
Model (S/N):,UV-2600i (A12595901003)

Parameter
[Measurement]
Start:,800 nm
End:,400 nm
Data Interval:,1.0
Scan Speed:,Medium speed
Spectrum Type:,Absorbance
[Accessories]
Accessories:,None
[Advanced]
Slit Width:,2.0
Detector Unit:,Direct Receiving of Light
Light Source Switch Wavelength:,323
S/R Switch:,Standard
Stair Correction:,ON
[Repeat]
Repeat Measurement:,OFF
[Post-processing]
Spectrum Transformation:,OFF
Data Processing Table:,OFF
Print:,OFF

Wavelength (nm),Absorbance
400.0,0.0151
401.0,0.0148
402.0,0.0142
403.0,0.0139
404.0,0.0135
405.0,0.0131
406.0,0.0127
407.0,0.0123
408.0,0.0119
409.0,0.0118
410.0,0.0116
411.0,0.0113
412.0,0.0113
413.0,0.0112
414.0,0.0112
415.0,0.0112
416.0,0.0112
417.0,0.0114
418.0,0.0116
419.0,0.0117
420.0,0.0119
421.0,0.0121
422.0,0.0124
423.0,0.0126
424.0,0.0128
425.0,0.0131
426.0,0.0132
427.0,0.0136
428.0,0.0140
429.0,0.0143
430.0,0.0145
431.0,0.0150
432.0,0.0153
433.0,0.0156
434.0,0.0160
435.0,0.0164
436.0,0.0167
437.0,0.0170
438.0,0.0175
439.0,0.0179
440.0,0.0183
441.0,0.0187
442.0,0.0191
443.0,0.0194
444.0,0.0199
445.0,0.0204
446.0,0.0207
447.0,0.0213
448.0,0.0217
449.0,0.0221
450.0,0.0226
451.0,0.0231
452.0,0.0235
453.0,0.0240
454.0,0.0245
455.0,0.0249
456.0,0.0254
457.0,0.0259
458.0,0.0264
459.0,0.0269
460.0,0.0274
461.0,0.0279
462.0,0.0285
463.0,0.0289
464.0,0.0294
465.0,0.0300
466.0,0.0304
467.0,0.0309
468.0,0.0315
469.0,0.0320
470.0,0.0324
471.0,0.0330
472.0,0.0334
473.0,0.0339
474.0,0.0343
475.0,0.0349
476.0,0.0354
477.0,0.0359
478.0,0.0365
479.0,0.0370
480.0,0.0375
481.0,0.0380
482.0,0.0385
483.0,0.0391
484.0,0.0396
485.0,0.0401
486.0,0.0406
487.0,0.0411
488.0,0.0417
489.0,0.0420
490.0,0.0425
491.0,0.0429
492.0,0.0432
493.0,0.0439
494.0,0.0442
495.0,0.0445
496.0,0.0449
497.0,0.0452
498.0,0.0456
499.0,0.0459
500.0,0.0462
501.0,0.0465
502.0,0.0467
503.0,0.0470
504.0,0.0474
505.0,0.0477
506.0,0.0480
507.0,0.0483
508.0,0.0487
509.0,0.0490
510.0,0.0494
511.0,0.0498
512.0,0.0503
513.0,0.0506
514.0,0.0512
515.0,0.0517
516.0,0.0523
517.0,0.0529
518.0,0.0536
519.0,0.0541
520.0,0.0550
521.0,0.0559
522.0,0.0567
523.0,0.0576
524.0,0.0587
525.0,0.0597
526.0,0.0608
527.0,0.0621
528.0,0.0634
529.0,0.0647
530.0,0.0662
531.0,0.0677
532.0,0.0693
533.0,0.0708
534.0,0.0727
535.0,0.0746
536.0,0.0766
537.0,0.0785
538.0,0.0807
539.0,0.0828
540.0,0.0851
541.0,0.0875
542.0,0.0899
543.0,0.0923
544.0,0.0950
545.0,0.0976
546.0,0.1004
547.0,0.1035
548.0,0.1065
549.0,0.1096
550.0,0.1127
551.0,0.1161
552.0,0.1194
553.0,0.1227
554.0,0.1263
555.0,0.1299
556.0,0.1337
557.0,0.1372
558.0,0.1409
559.0,0.1448
560.0,0.1486
561.0,0.1524
562.0,0.1563
563.0,0.1604
564.0,0.1646
565.0,0.1687
566.0,0.1731
567.0,0.1775
568.0,0.1819
569.0,0.1866
570.0,0.1917
571.0,0.1969
572.0,0.2024
573.0,0.2080
574.0,0.2140
575.0,0.2201
576.0,0.2264
577.0,0.2329
578.0,0.2398
579.0,0.2470
580.0,0.2544
581.0,0.2617
582.0,0.2695
583.0,0.2774
584.0,0.2853
585.0,0.2936
586.0,0.3020
587.0,0.3107
588.0,0.3196
589.0,0.3287
590.0,0.3376
591.0,0.3472
592.0,0.3566
593.0,0.3665
594.0,0.3760
595.0,0.3853
596.0,0.3950
597.0,0.4044
598.0,0.4133
599.0,0.4225
600.0,0.4311
601.0,0.4396
602.0,0.4476
603.0,0.4547
604.0,0.4619
605.0,0.4685
606.0,0.4745
607.0,0.4801
608.0,0.4853
609.0,0.4897
610.0,0.4938
611.0,0.4972
612.0,0.5001
613.0,0.5029
614.0,0.5053
615.0,0.5073
616.0,0.5092
617.0,0.5109
618.0,0.5125
619.0,0.5141
620.0,0.5158
621.0,0.5177
622.0,0.5199
623.0,0.5223
624.0,0.5252
625.0,0.5285
626.0,0.5322
627.0,0.5364
628.0,0.5410
629.0,0.5461
630.0,0.5519
631.0,0.5581
632.0,0.5647
633.0,0.5719
634.0,0.5793
635.0,0.5875
636.0,0.5962
637.0,0.6054
638.0,0.6148
639.0,0.6248
640.0,0.6348
641.0,0.6452
642.0,0.6559
643.0,0.6664
644.0,0.6774
645.0,0.6880
646.0,0.6983
647.0,0.7086
648.0,0.7183
649.0,0.7272
650.0,0.7358
651.0,0.7439
652.0,0.7510
653.0,0.7573
654.0,0.7628
655.0,0.7674
656.0,0.7713
657.0,0.7743
658.0,0.7761
659.0,0.7774
660.0,0.7775
661.0,0.7762
662.0,0.7736
663.0,0.7694
664.0,0.7639
665.0,0.7561
666.0,0.7461
667.0,0.7342
668.0,0.7199
669.0,0.7033
670.0,0.6846
671.0,0.6636
672.0,0.6406
673.0,0.6158
674.0,0.5882
675.0,0.5595
676.0,0.5301
677.0,0.5001
678.0,0.4698
679.0,0.4383
680.0,0.4069
681.0,0.3777
682.0,0.3483
683.0,0.3209
684.0,0.2949
685.0,0.2705
686.0,0.2477
687.0,0.2262
688.0,0.2061
689.0,0.1885
690.0,0.1722
691.0,0.1569
692.0,0.1435
693.0,0.1306
694.0,0.1191
695.0,0.1089
696.0,0.0992
697.0,0.0905
698.0,0.0830
699.0,0.0759
700.0,0.0696
701.0,0.0639
702.0,0.0584
703.0,0.0535
704.0,0.0493
705.0,0.0451
706.0,0.0415
707.0,0.0384
708.0,0.0353
709.0,0.0329
710.0,0.0303
711.0,0.0282
712.0,0.0262
713.0,0.0244
714.0,0.0226
715.0,0.0213
716.0,0.0198
717.0,0.0185
718.0,0.0174
719.0,0.0163
720.0,0.0153
721.0,0.0143
722.0,0.0134
723.0,0.0127
724.0,0.0119
725.0,0.0112
726.0,0.0105
727.0,0.0100
728.0,0.0094
729.0,0.0088
730.0,0.0083
731.0,0.0080
732.0,0.0072
733.0,0.0071
734.0,0.0067
735.0,0.0063
736.0,0.0058
737.0,0.0057
738.0,0.0053
739.0,0.0050
740.0,0.0049
741.0,0.0044
742.0,0.0043
743.0,0.0042
744.0,0.0039
745.0,0.0037
746.0,0.0035
747.0,0.0033
748.0,0.0032
749.0,0.0030
750.0,0.0029
751.0,0.0027
752.0,0.0025
753.0,0.0023
754.0,0.0023
755.0,0.0023
756.0,0.0020
757.0,0.0019
758.0,0.0019
759.0,0.0018
760.0,0.0018
761.0,0.0015
762.0,0.0013
763.0,0.0012
764.0,0.0011
765.0,0.0011
766.0,0.0011
767.0,0.0011
768.0,0.0010
769.0,0.0008
770.0,0.0009
771.0,0.0008
772.0,0.0008
773.0,0.0007
774.0,0.0006
775.0,0.0005
776.0,0.0005
777.0,0.0005
778.0,0.0004
779.0,0.0004
780.0,0.0002
781.0,0.0004
782.0,0.0002
783.0,0.0003
784.0,0.0002
785.0,0.0002
786.0,0.0000
787.0,0.0002
788.0,0.0001
789.0,0.0001
790.0,0.0001
791.0,-0.0000
792.0,0.0000
793.0,-0.0000
794.0,0.0000
795.0,-0.0001
796.0,-0.0001
797.0,-0.0002
798.0,-0.0002
799.0,0.0000
800.0,-0.0003
