Summary
[Data Information]
Data is:,Measurement Data
Dataset Name:,RawData
Sample Name:,prova_bd_28825_60min
Sample ID
Option
Analyst
Date/Time:,28/08/2025 16:59:57
Comments
Parameter File Name:,4NP_bezzetto.vspm
Report File Name
[Software Information]
Software Name:,LabSolutions UV-Vis
Version:,1.13
[Instrument Information]
Instrument Name:,UV-2600i
Instrument Type:,UV-2600 Series
Model (S/N):,UV-2600i (A12595901003)

Parameter
[Measurement]
Start:,800 nm
End:,400 nm
Data Interval:,1.0
Scan Speed:,Medium speed
Spectrum Type:,Absorbance
[Accessories]
Accessories:,None
[Advanced]
Slit Width:,2.0
Detector Unit:,Direct Receiving of Light
Light Source Switch Wavelength:,323
S/R Switch:,Standard
Stair Correction:,ON
[Repeat]
Repeat Measurement:,OFF
[Post-processing]
Spectrum Transformation:,OFF
Data Processing Table:,OFF
Print:,OFF

Wavelength (nm),Absorbance
400.0,0.0088
401.0,0.0088
402.0,0.0088
403.0,0.0088
404.0,0.0088
405.0,0.0088
406.0,0.0089
407.0,0.0090
408.0,0.0090
409.0,0.0090
410.0,0.0091
411.0,0.0092
412.0,0.0093
413.0,0.0093
414.0,0.0094
415.0,0.0096
416.0,0.0097
417.0,0.0097
418.0,0.0098
419.0,0.0100
420.0,0.0101
421.0,0.0101
422.0,0.0102
423.0,0.0103
424.0,0.0104
425.0,0.0105
426.0,0.0106
427.0,0.0107
428.0,0.0108
429.0,0.0110
430.0,0.0111
431.0,0.0111
432.0,0.0112
433.0,0.0114
434.0,0.0114
435.0,0.0115
436.0,0.0117
437.0,0.0117
438.0,0.0118
439.0,0.0120
440.0,0.0121
441.0,0.0121
442.0,0.0123
443.0,0.0123
444.0,0.0124
445.0,0.0125
446.0,0.0126
447.0,0.0127
448.0,0.0127
449.0,0.0128
450.0,0.0130
451.0,0.0130
452.0,0.0130
453.0,0.0133
454.0,0.0134
455.0,0.0134
456.0,0.0135
457.0,0.0136
458.0,0.0137
459.0,0.0138
460.0,0.0139
461.0,0.0140
462.0,0.0141
463.0,0.0143
464.0,0.0144
465.0,0.0144
466.0,0.0144
467.0,0.0145
468.0,0.0147
469.0,0.0147
470.0,0.0149
471.0,0.0149
472.0,0.0150
473.0,0.0151
474.0,0.0152
475.0,0.0153
476.0,0.0153
477.0,0.0155
478.0,0.0156
479.0,0.0156
480.0,0.0158
481.0,0.0158
482.0,0.0159
483.0,0.0160
484.0,0.0161
485.0,0.0162
486.0,0.0162
487.0,0.0164
488.0,0.0165
489.0,0.0166
490.0,0.0167
491.0,0.0169
492.0,0.0170
493.0,0.0171
494.0,0.0172
495.0,0.0174
496.0,0.0174
497.0,0.0176
498.0,0.0178
499.0,0.0178
500.0,0.0181
501.0,0.0182
502.0,0.0184
503.0,0.0186
504.0,0.0188
505.0,0.0189
506.0,0.0190
507.0,0.0193
508.0,0.0195
509.0,0.0198
510.0,0.0200
511.0,0.0202
512.0,0.0205
513.0,0.0207
514.0,0.0210
515.0,0.0212
516.0,0.0215
517.0,0.0218
518.0,0.0221
519.0,0.0223
520.0,0.0226
521.0,0.0229
522.0,0.0233
523.0,0.0237
524.0,0.0240
525.0,0.0243
526.0,0.0246
527.0,0.0250
528.0,0.0254
529.0,0.0257
530.0,0.0261
531.0,0.0264
532.0,0.0268
533.0,0.0273
534.0,0.0277
535.0,0.0282
536.0,0.0286
537.0,0.0292
538.0,0.0297
539.0,0.0302
540.0,0.0306
541.0,0.0311
542.0,0.0317
543.0,0.0322
544.0,0.0328
545.0,0.0333
546.0,0.0339
547.0,0.0345
548.0,0.0351
549.0,0.0357
550.0,0.0364
551.0,0.0371
552.0,0.0378
553.0,0.0384
554.0,0.0391
555.0,0.0399
556.0,0.0406
557.0,0.0413
558.0,0.0420
559.0,0.0428
560.0,0.0435
561.0,0.0441
562.0,0.0449
563.0,0.0456
564.0,0.0463
565.0,0.0470
566.0,0.0477
567.0,0.0485
568.0,0.0491
569.0,0.0499
570.0,0.0507
571.0,0.0514
572.0,0.0522
573.0,0.0530
574.0,0.0537
575.0,0.0545
576.0,0.0553
577.0,0.0560
578.0,0.0568
579.0,0.0577
580.0,0.0584
581.0,0.0592
582.0,0.0600
583.0,0.0608
584.0,0.0616
585.0,0.0623
586.0,0.0630
587.0,0.0639
588.0,0.0646
589.0,0.0655
590.0,0.0662
591.0,0.0671
592.0,0.0679
593.0,0.0687
594.0,0.0695
595.0,0.0702
596.0,0.0711
597.0,0.0720
598.0,0.0727
599.0,0.0735
600.0,0.0742
601.0,0.0750
602.0,0.0757
603.0,0.0764
604.0,0.0769
605.0,0.0776
606.0,0.0782
607.0,0.0786
608.0,0.0792
609.0,0.0796
610.0,0.0800
611.0,0.0803
612.0,0.0805
613.0,0.0809
614.0,0.0810
615.0,0.0812
616.0,0.0812
617.0,0.0813
618.0,0.0812
619.0,0.0811
620.0,0.0809
621.0,0.0806
622.0,0.0803
623.0,0.0800
624.0,0.0796
625.0,0.0790
626.0,0.0785
627.0,0.0779
628.0,0.0773
629.0,0.0767
630.0,0.0760
631.0,0.0752
632.0,0.0744
633.0,0.0737
634.0,0.0727
635.0,0.0719
636.0,0.0708
637.0,0.0698
638.0,0.0687
639.0,0.0676
640.0,0.0664
641.0,0.0651
642.0,0.0639
643.0,0.0626
644.0,0.0615
645.0,0.0602
646.0,0.0590
647.0,0.0576
648.0,0.0565
649.0,0.0553
650.0,0.0540
651.0,0.0528
652.0,0.0516
653.0,0.0503
654.0,0.0492
655.0,0.0478
656.0,0.0465
657.0,0.0451
658.0,0.0439
659.0,0.0425
660.0,0.0411
661.0,0.0397
662.0,0.0383
663.0,0.0368
664.0,0.0354
665.0,0.0340
666.0,0.0326
667.0,0.0313
668.0,0.0299
669.0,0.0286
670.0,0.0271
671.0,0.0257
672.0,0.0245
673.0,0.0233
674.0,0.0218
675.0,0.0206
676.0,0.0195
677.0,0.0181
678.0,0.0169
679.0,0.0158
680.0,0.0147
681.0,0.0137
682.0,0.0127
683.0,0.0117
684.0,0.0109
685.0,0.0099
686.0,0.0092
687.0,0.0086
688.0,0.0080
689.0,0.0073
690.0,0.0068
691.0,0.0063
692.0,0.0057
693.0,0.0053
694.0,0.0050
695.0,0.0046
696.0,0.0043
697.0,0.0040
698.0,0.0037
699.0,0.0035
700.0,0.0032
701.0,0.0030
702.0,0.0027
703.0,0.0027
704.0,0.0023
705.0,0.0023
706.0,0.0020
707.0,0.0019
708.0,0.0018
709.0,0.0016
710.0,0.0016
711.0,0.0014
712.0,0.0014
713.0,0.0012
714.0,0.0012
715.0,0.0010
716.0,0.0010
717.0,0.0008
718.0,0.0008
719.0,0.0007
720.0,0.0007
721.0,0.0006
722.0,0.0006
723.0,0.0005
724.0,0.0005
725.0,0.0005
726.0,0.0004
727.0,0.0004
728.0,0.0003
729.0,0.0002
730.0,0.0002
731.0,0.0001
732.0,0.0000
733.0,0.0001
734.0,-0.0000
735.0,0.0001
736.0,0.0000
737.0,-0.0000
738.0,0.0001
739.0,-0.0001
740.0,-0.0002
741.0,-0.0001
742.0,0.0000
743.0,-0.0001
744.0,-0.0000
745.0,-0.0001
746.0,-0.0001
747.0,-0.0000
748.0,-0.0000
749.0,-0.0002
750.0,-0.0000
751.0,-0.0000
752.0,-0.0001
753.0,-0.0001
754.0,-0.0001
755.0,0.0000
756.0,-0.0000
757.0,0.0000
758.0,-0.0000
759.0,0.0000
760.0,0.0001
761.0,0.0000
762.0,-0.0000
763.0,0.0000
764.0,0.0001
765.0,0.0002
766.0,0.0000
767.0,0.0001
768.0,0.0001
769.0,-0.0001
770.0,0.0001
771.0,0.0001
772.0,0.0002
773.0,0.0003
774.0,0.0001
775.0,0.0002
776.0,0.0001
777.0,0.0001
778.0,0.0002
779.0,0.0002
780.0,0.0000
781.0,0.0002
782.0,0.0001
783.0,0.0003
784.0,-0.0000
785.0,0.0001
786.0,0.0001
787.0,0.0001
788.0,0.0002
789.0,0.0004
790.0,0.0002
791.0,0.0001
792.0,0.0002
793.0,0.0002
794.0,0.0002
795.0,0.0002
796.0,0.0002
797.0,0.0001
798.0,0.0001
799.0,0.0003
800.0,0.0003
