Summary
[Data Information]
Data is:,Measurement Data
Dataset Name:,RawData
Sample Name:,prova_c_27825_20min
Sample ID
Option
Analyst
Date/Time:,27/08/2025 14:18:32
Comments
Parameter File Name:,4NP_bezzetto.vspm
Report File Name
[Software Information]
Software Name:,LabSolutions UV-Vis
Version:,1.13
[Instrument Information]
Instrument Name:,UV-2600i
Instrument Type:,UV-2600 Series
Model (S/N):,UV-2600i (A12595901003)

Parameter
[Measurement]
Start:,800 nm
End:,400 nm
Data Interval:,1.0
Scan Speed:,Medium speed
Spectrum Type:,Absorbance
[Accessories]
Accessories:,None
[Advanced]
Slit Width:,2.0
Detector Unit:,Direct Receiving of Light
Light Source Switch Wavelength:,323
S/R Switch:,Standard
Stair Correction:,ON
[Repeat]
Repeat Measurement:,OFF
[Post-processing]
Spectrum Transformation:,OFF
Data Processing Table:,OFF
Print:,OFF

Wavelength (nm),Absorbance
400.0,0.0077
401.0,0.0077
402.0,0.0076
403.0,0.0075
404.0,0.0074
405.0,0.0076
406.0,0.0073
407.0,0.0073
408.0,0.0072
409.0,0.0073
410.0,0.0074
411.0,0.0073
412.0,0.0074
413.0,0.0074
414.0,0.0074
415.0,0.0076
416.0,0.0076
417.0,0.0077
418.0,0.0078
419.0,0.0079
420.0,0.0080
421.0,0.0081
422.0,0.0083
423.0,0.0083
424.0,0.0085
425.0,0.0087
426.0,0.0088
427.0,0.0090
428.0,0.0091
429.0,0.0092
430.0,0.0094
431.0,0.0096
432.0,0.0097
433.0,0.0098
434.0,0.0099
435.0,0.0101
436.0,0.0103
437.0,0.0104
438.0,0.0106
439.0,0.0108
440.0,0.0109
441.0,0.0111
442.0,0.0112
443.0,0.0114
444.0,0.0116
445.0,0.0117
446.0,0.0118
447.0,0.0120
448.0,0.0122
449.0,0.0124
450.0,0.0125
451.0,0.0127
452.0,0.0129
453.0,0.0130
454.0,0.0131
455.0,0.0133
456.0,0.0135
457.0,0.0137
458.0,0.0139
459.0,0.0141
460.0,0.0142
461.0,0.0144
462.0,0.0146
463.0,0.0147
464.0,0.0148
465.0,0.0151
466.0,0.0153
467.0,0.0154
468.0,0.0156
469.0,0.0157
470.0,0.0159
471.0,0.0161
472.0,0.0162
473.0,0.0164
474.0,0.0165
475.0,0.0167
476.0,0.0168
477.0,0.0170
478.0,0.0172
479.0,0.0173
480.0,0.0175
481.0,0.0176
482.0,0.0178
483.0,0.0180
484.0,0.0182
485.0,0.0182
486.0,0.0184
487.0,0.0186
488.0,0.0188
489.0,0.0188
490.0,0.0191
491.0,0.0191
492.0,0.0192
493.0,0.0194
494.0,0.0196
495.0,0.0196
496.0,0.0198
497.0,0.0200
498.0,0.0201
499.0,0.0202
500.0,0.0204
501.0,0.0205
502.0,0.0206
503.0,0.0208
504.0,0.0210
505.0,0.0211
506.0,0.0214
507.0,0.0215
508.0,0.0218
509.0,0.0219
510.0,0.0221
511.0,0.0223
512.0,0.0226
513.0,0.0228
514.0,0.0231
515.0,0.0233
516.0,0.0237
517.0,0.0239
518.0,0.0242
519.0,0.0246
520.0,0.0250
521.0,0.0253
522.0,0.0257
523.0,0.0261
524.0,0.0265
525.0,0.0270
526.0,0.0275
527.0,0.0280
528.0,0.0285
529.0,0.0291
530.0,0.0297
531.0,0.0302
532.0,0.0308
533.0,0.0315
534.0,0.0322
535.0,0.0329
536.0,0.0337
537.0,0.0345
538.0,0.0353
539.0,0.0361
540.0,0.0370
541.0,0.0378
542.0,0.0387
543.0,0.0396
544.0,0.0406
545.0,0.0416
546.0,0.0426
547.0,0.0438
548.0,0.0448
549.0,0.0459
550.0,0.0471
551.0,0.0483
552.0,0.0495
553.0,0.0508
554.0,0.0521
555.0,0.0535
556.0,0.0549
557.0,0.0562
558.0,0.0575
559.0,0.0590
560.0,0.0604
561.0,0.0618
562.0,0.0633
563.0,0.0649
564.0,0.0664
565.0,0.0678
566.0,0.0695
567.0,0.0711
568.0,0.0727
569.0,0.0743
570.0,0.0762
571.0,0.0781
572.0,0.0799
573.0,0.0819
574.0,0.0839
575.0,0.0859
576.0,0.0881
577.0,0.0902
578.0,0.0924
579.0,0.0946
580.0,0.0969
581.0,0.0992
582.0,0.1015
583.0,0.1039
584.0,0.1061
585.0,0.1085
586.0,0.1109
587.0,0.1134
588.0,0.1159
589.0,0.1184
590.0,0.1209
591.0,0.1235
592.0,0.1260
593.0,0.1285
594.0,0.1312
595.0,0.1336
596.0,0.1362
597.0,0.1388
598.0,0.1412
599.0,0.1437
600.0,0.1460
601.0,0.1483
602.0,0.1505
603.0,0.1526
604.0,0.1547
605.0,0.1568
606.0,0.1586
607.0,0.1604
608.0,0.1622
609.0,0.1639
610.0,0.1655
611.0,0.1670
612.0,0.1684
613.0,0.1698
614.0,0.1711
615.0,0.1724
616.0,0.1737
617.0,0.1749
618.0,0.1761
619.0,0.1773
620.0,0.1785
621.0,0.1797
622.0,0.1809
623.0,0.1822
624.0,0.1835
625.0,0.1848
626.0,0.1863
627.0,0.1877
628.0,0.1892
629.0,0.1907
630.0,0.1924
631.0,0.1939
632.0,0.1954
633.0,0.1971
634.0,0.1986
635.0,0.2003
636.0,0.2018
637.0,0.2034
638.0,0.2048
639.0,0.2064
640.0,0.2077
641.0,0.2092
642.0,0.2107
643.0,0.2119
644.0,0.2131
645.0,0.2143
646.0,0.2152
647.0,0.2162
648.0,0.2169
649.0,0.2174
650.0,0.2177
651.0,0.2178
652.0,0.2176
653.0,0.2171
654.0,0.2164
655.0,0.2153
656.0,0.2141
657.0,0.2123
658.0,0.2104
659.0,0.2082
660.0,0.2057
661.0,0.2028
662.0,0.1995
663.0,0.1961
664.0,0.1923
665.0,0.1882
666.0,0.1835
667.0,0.1787
668.0,0.1735
669.0,0.1679
670.0,0.1620
671.0,0.1556
672.0,0.1491
673.0,0.1424
674.0,0.1350
675.0,0.1278
676.0,0.1203
677.0,0.1128
678.0,0.1054
679.0,0.0979
680.0,0.0904
681.0,0.0836
682.0,0.0767
683.0,0.0704
684.0,0.0641
685.0,0.0585
686.0,0.0533
687.0,0.0484
688.0,0.0439
689.0,0.0399
690.0,0.0362
691.0,0.0328
692.0,0.0298
693.0,0.0269
694.0,0.0245
695.0,0.0222
696.0,0.0201
697.0,0.0183
698.0,0.0167
699.0,0.0151
700.0,0.0138
701.0,0.0126
702.0,0.0114
703.0,0.0104
704.0,0.0096
705.0,0.0087
706.0,0.0080
707.0,0.0073
708.0,0.0067
709.0,0.0062
710.0,0.0057
711.0,0.0053
712.0,0.0048
713.0,0.0046
714.0,0.0041
715.0,0.0040
716.0,0.0036
717.0,0.0033
718.0,0.0033
719.0,0.0030
720.0,0.0029
721.0,0.0027
722.0,0.0025
723.0,0.0024
724.0,0.0022
725.0,0.0021
726.0,0.0020
727.0,0.0019
728.0,0.0018
729.0,0.0016
730.0,0.0015
731.0,0.0016
732.0,0.0012
733.0,0.0014
734.0,0.0012
735.0,0.0012
736.0,0.0011
737.0,0.0010
738.0,0.0009
739.0,0.0009
740.0,0.0010
741.0,0.0008
742.0,0.0009
743.0,0.0008
744.0,0.0007
745.0,0.0007
746.0,0.0006
747.0,0.0006
748.0,0.0006
749.0,0.0005
750.0,0.0005
751.0,0.0005
752.0,0.0004
753.0,0.0004
754.0,0.0004
755.0,0.0006
756.0,0.0004
757.0,0.0004
758.0,0.0004
759.0,0.0004
760.0,0.0004
761.0,0.0004
762.0,0.0004
763.0,0.0002
764.0,0.0004
765.0,0.0002
766.0,0.0003
767.0,0.0003
768.0,0.0003
769.0,0.0004
770.0,0.0003
771.0,0.0002
772.0,0.0002
773.0,0.0003
774.0,0.0002
775.0,0.0001
776.0,0.0002
777.0,0.0001
778.0,0.0002
779.0,0.0002
780.0,0.0002
781.0,0.0000
782.0,0.0001
783.0,0.0001
784.0,0.0002
785.0,0.0001
786.0,-0.0001
787.0,0.0003
788.0,0.0001
789.0,0.0002
790.0,0.0001
791.0,-0.0001
792.0,0.0001
793.0,0.0001
794.0,0.0001
795.0,-0.0001
796.0,-0.0000
797.0,-0.0000
798.0,0.0001
799.0,0.0001
800.0,-0.0000
