Summary
[Data Information]
Data is:,Measurement Data
Dataset Name:,RawData
Sample Name:,prova_bc_27825_60min
Sample ID
Option
Analyst
Date/Time:,27/08/2025 18:40:49
Comments
Parameter File Name:,4NP_bezzetto.vspm
Report File Name
[Software Information]
Software Name:,LabSolutions UV-Vis
Version:,1.13
[Instrument Information]
Instrument Name:,UV-2600i
Instrument Type:,UV-2600 Series
Model (S/N):,UV-2600i (A12595901003)

Parameter
[Measurement]
Start:,800 nm
End:,400 nm
Data Interval:,1.0
Scan Speed:,Medium speed
Spectrum Type:,Absorbance
[Accessories]
Accessories:,None
[Advanced]
Slit Width:,2.0
Detector Unit:,Direct Receiving of Light
Light Source Switch Wavelength:,323
S/R Switch:,Standard
Stair Correction:,ON
[Repeat]
Repeat Measurement:,OFF
[Post-processing]
Spectrum Transformation:,OFF
Data Processing Table:,OFF
Print:,OFF

Wavelength (nm),Absorbance
400.0,0.0127
401.0,0.0127
402.0,0.0126
403.0,0.0126
404.0,0.0126
405.0,0.0126
406.0,0.0125
407.0,0.0126
408.0,0.0125
409.0,0.0126
410.0,0.0127
411.0,0.0128
412.0,0.0128
413.0,0.0129
414.0,0.0131
415.0,0.0132
416.0,0.0134
417.0,0.0135
418.0,0.0137
419.0,0.0138
420.0,0.0140
421.0,0.0142
422.0,0.0144
423.0,0.0146
424.0,0.0148
425.0,0.0151
426.0,0.0152
427.0,0.0154
428.0,0.0157
429.0,0.0158
430.0,0.0161
431.0,0.0164
432.0,0.0166
433.0,0.0167
434.0,0.0169
435.0,0.0172
436.0,0.0174
437.0,0.0177
438.0,0.0180
439.0,0.0182
440.0,0.0185
441.0,0.0187
442.0,0.0190
443.0,0.0191
444.0,0.0195
445.0,0.0197
446.0,0.0199
447.0,0.0202
448.0,0.0204
449.0,0.0207
450.0,0.0210
451.0,0.0213
452.0,0.0214
453.0,0.0217
454.0,0.0220
455.0,0.0223
456.0,0.0227
457.0,0.0229
458.0,0.0232
459.0,0.0235
460.0,0.0238
461.0,0.0240
462.0,0.0244
463.0,0.0247
464.0,0.0249
465.0,0.0254
466.0,0.0255
467.0,0.0259
468.0,0.0262
469.0,0.0264
470.0,0.0268
471.0,0.0271
472.0,0.0273
473.0,0.0276
474.0,0.0278
475.0,0.0282
476.0,0.0285
477.0,0.0287
478.0,0.0291
479.0,0.0292
480.0,0.0295
481.0,0.0298
482.0,0.0301
483.0,0.0305
484.0,0.0307
485.0,0.0310
486.0,0.0312
487.0,0.0315
488.0,0.0318
489.0,0.0320
490.0,0.0322
491.0,0.0325
492.0,0.0327
493.0,0.0331
494.0,0.0333
495.0,0.0336
496.0,0.0337
497.0,0.0341
498.0,0.0344
499.0,0.0347
500.0,0.0350
501.0,0.0354
502.0,0.0357
503.0,0.0360
504.0,0.0364
505.0,0.0369
506.0,0.0372
507.0,0.0377
508.0,0.0382
509.0,0.0386
510.0,0.0392
511.0,0.0396
512.0,0.0402
513.0,0.0407
514.0,0.0413
515.0,0.0419
516.0,0.0425
517.0,0.0431
518.0,0.0439
519.0,0.0445
520.0,0.0453
521.0,0.0460
522.0,0.0469
523.0,0.0478
524.0,0.0486
525.0,0.0495
526.0,0.0505
527.0,0.0515
528.0,0.0526
529.0,0.0536
530.0,0.0547
531.0,0.0558
532.0,0.0570
533.0,0.0581
534.0,0.0595
535.0,0.0608
536.0,0.0622
537.0,0.0636
538.0,0.0650
539.0,0.0665
540.0,0.0681
541.0,0.0696
542.0,0.0713
543.0,0.0728
544.0,0.0746
545.0,0.0764
546.0,0.0781
547.0,0.0801
548.0,0.0820
549.0,0.0840
550.0,0.0860
551.0,0.0883
552.0,0.0905
553.0,0.0927
554.0,0.0949
555.0,0.0973
556.0,0.0997
557.0,0.1021
558.0,0.1045
559.0,0.1072
560.0,0.1097
561.0,0.1123
562.0,0.1149
563.0,0.1175
564.0,0.1202
565.0,0.1229
566.0,0.1257
567.0,0.1286
568.0,0.1313
569.0,0.1342
570.0,0.1373
571.0,0.1404
572.0,0.1436
573.0,0.1468
574.0,0.1501
575.0,0.1533
576.0,0.1567
577.0,0.1600
578.0,0.1634
579.0,0.1668
580.0,0.1703
581.0,0.1737
582.0,0.1771
583.0,0.1805
584.0,0.1838
585.0,0.1871
586.0,0.1904
587.0,0.1938
588.0,0.1971
589.0,0.2006
590.0,0.2039
591.0,0.2073
592.0,0.2105
593.0,0.2140
594.0,0.2173
595.0,0.2205
596.0,0.2239
597.0,0.2272
598.0,0.2303
599.0,0.2334
600.0,0.2365
601.0,0.2395
602.0,0.2425
603.0,0.2452
604.0,0.2480
605.0,0.2507
606.0,0.2531
607.0,0.2558
608.0,0.2583
609.0,0.2607
610.0,0.2630
611.0,0.2652
612.0,0.2673
613.0,0.2695
614.0,0.2715
615.0,0.2734
616.0,0.2753
617.0,0.2771
618.0,0.2788
619.0,0.2804
620.0,0.2818
621.0,0.2832
622.0,0.2845
623.0,0.2856
624.0,0.2866
625.0,0.2876
626.0,0.2886
627.0,0.2894
628.0,0.2900
629.0,0.2907
630.0,0.2911
631.0,0.2915
632.0,0.2915
633.0,0.2915
634.0,0.2912
635.0,0.2906
636.0,0.2899
637.0,0.2890
638.0,0.2879
639.0,0.2864
640.0,0.2848
641.0,0.2830
642.0,0.2811
643.0,0.2788
644.0,0.2765
645.0,0.2743
646.0,0.2718
647.0,0.2690
648.0,0.2662
649.0,0.2632
650.0,0.2600
651.0,0.2566
652.0,0.2530
653.0,0.2489
654.0,0.2447
655.0,0.2404
656.0,0.2357
657.0,0.2305
658.0,0.2253
659.0,0.2196
660.0,0.2135
661.0,0.2076
662.0,0.2011
663.0,0.1947
664.0,0.1882
665.0,0.1815
666.0,0.1745
667.0,0.1677
668.0,0.1609
669.0,0.1540
670.0,0.1471
671.0,0.1402
672.0,0.1332
673.0,0.1264
674.0,0.1194
675.0,0.1125
676.0,0.1057
677.0,0.0992
678.0,0.0925
679.0,0.0860
680.0,0.0798
681.0,0.0741
682.0,0.0685
683.0,0.0632
684.0,0.0581
685.0,0.0536
686.0,0.0493
687.0,0.0454
688.0,0.0416
689.0,0.0385
690.0,0.0354
691.0,0.0326
692.0,0.0301
693.0,0.0277
694.0,0.0256
695.0,0.0237
696.0,0.0219
697.0,0.0203
698.0,0.0189
699.0,0.0175
700.0,0.0163
701.0,0.0152
702.0,0.0141
703.0,0.0132
704.0,0.0123
705.0,0.0114
706.0,0.0107
707.0,0.0101
708.0,0.0093
709.0,0.0088
710.0,0.0083
711.0,0.0078
712.0,0.0073
713.0,0.0070
714.0,0.0065
715.0,0.0063
716.0,0.0059
717.0,0.0055
718.0,0.0053
719.0,0.0050
720.0,0.0047
721.0,0.0044
722.0,0.0043
723.0,0.0040
724.0,0.0038
725.0,0.0036
726.0,0.0034
727.0,0.0034
728.0,0.0031
729.0,0.0028
730.0,0.0028
731.0,0.0027
732.0,0.0024
733.0,0.0024
734.0,0.0023
735.0,0.0022
736.0,0.0020
737.0,0.0020
738.0,0.0018
739.0,0.0017
740.0,0.0018
741.0,0.0015
742.0,0.0015
743.0,0.0015
744.0,0.0014
745.0,0.0014
746.0,0.0012
747.0,0.0012
748.0,0.0012
749.0,0.0011
750.0,0.0011
751.0,0.0010
752.0,0.0010
753.0,0.0009
754.0,0.0009
755.0,0.0010
756.0,0.0008
757.0,0.0006
758.0,0.0008
759.0,0.0007
760.0,0.0007
761.0,0.0006
762.0,0.0006
763.0,0.0005
764.0,0.0006
765.0,0.0005
766.0,0.0003
767.0,0.0004
768.0,0.0004
769.0,0.0006
770.0,0.0005
771.0,0.0004
772.0,0.0003
773.0,0.0004
774.0,0.0002
775.0,0.0002
776.0,0.0003
777.0,0.0003
778.0,0.0003
779.0,0.0003
780.0,0.0001
781.0,0.0002
782.0,0.0001
783.0,0.0002
784.0,0.0002
785.0,0.0001
786.0,-0.0000
787.0,0.0002
788.0,0.0001
789.0,0.0002
790.0,0.0001
791.0,-0.0001
792.0,0.0002
793.0,0.0001
794.0,0.0001
795.0,0.0000
796.0,-0.0001
797.0,0.0001
798.0,-0.0001
799.0,0.0001
800.0,-0.0001
