Summary
[Data Information]
Data is:,Measurement Data
Dataset Name:,RawData
Sample Name:,prova_bc_27825_20min
Sample ID
Option
Analyst
Date/Time:,27/08/2025 18:45:31
Comments
Parameter File Name:,4NP_bezzetto.vspm
Report File Name
[Software Information]
Software Name:,LabSolutions UV-Vis
Version:,1.13
[Instrument Information]
Instrument Name:,UV-2600i
Instrument Type:,UV-2600 Series
Model (S/N):,UV-2600i (A12595901003)

Parameter
[Measurement]
Start:,800 nm
End:,400 nm
Data Interval:,1.0
Scan Speed:,Medium speed
Spectrum Type:,Absorbance
[Accessories]
Accessories:,None
[Advanced]
Slit Width:,2.0
Detector Unit:,Direct Receiving of Light
Light Source Switch Wavelength:,323
S/R Switch:,Standard
Stair Correction:,ON
[Repeat]
Repeat Measurement:,OFF
[Post-processing]
Spectrum Transformation:,OFF
Data Processing Table:,OFF
Print:,OFF

Wavelength (nm),Absorbance
400.0,0.0169
401.0,0.0165
402.0,0.0160
403.0,0.0156
404.0,0.0152
405.0,0.0150
406.0,0.0146
407.0,0.0142
408.0,0.0139
409.0,0.0137
410.0,0.0136
411.0,0.0134
412.0,0.0134
413.0,0.0134
414.0,0.0134
415.0,0.0135
416.0,0.0136
417.0,0.0137
418.0,0.0138
419.0,0.0140
420.0,0.0142
421.0,0.0145
422.0,0.0147
423.0,0.0150
424.0,0.0152
425.0,0.0156
426.0,0.0158
427.0,0.0162
428.0,0.0167
429.0,0.0169
430.0,0.0172
431.0,0.0176
432.0,0.0179
433.0,0.0183
434.0,0.0187
435.0,0.0192
436.0,0.0195
437.0,0.0199
438.0,0.0204
439.0,0.0209
440.0,0.0212
441.0,0.0216
442.0,0.0222
443.0,0.0225
444.0,0.0230
445.0,0.0236
446.0,0.0240
447.0,0.0245
448.0,0.0250
449.0,0.0255
450.0,0.0260
451.0,0.0265
452.0,0.0270
453.0,0.0275
454.0,0.0280
455.0,0.0286
456.0,0.0291
457.0,0.0296
458.0,0.0302
459.0,0.0307
460.0,0.0313
461.0,0.0318
462.0,0.0324
463.0,0.0329
464.0,0.0334
465.0,0.0341
466.0,0.0346
467.0,0.0352
468.0,0.0358
469.0,0.0363
470.0,0.0368
471.0,0.0375
472.0,0.0380
473.0,0.0385
474.0,0.0391
475.0,0.0396
476.0,0.0402
477.0,0.0407
478.0,0.0414
479.0,0.0419
480.0,0.0425
481.0,0.0430
482.0,0.0436
483.0,0.0442
484.0,0.0447
485.0,0.0453
486.0,0.0458
487.0,0.0464
488.0,0.0469
489.0,0.0473
490.0,0.0478
491.0,0.0482
492.0,0.0487
493.0,0.0492
494.0,0.0496
495.0,0.0500
496.0,0.0504
497.0,0.0508
498.0,0.0511
499.0,0.0515
500.0,0.0518
501.0,0.0522
502.0,0.0526
503.0,0.0530
504.0,0.0534
505.0,0.0538
506.0,0.0542
507.0,0.0546
508.0,0.0552
509.0,0.0555
510.0,0.0561
511.0,0.0565
512.0,0.0572
513.0,0.0577
514.0,0.0584
515.0,0.0591
516.0,0.0598
517.0,0.0605
518.0,0.0614
519.0,0.0622
520.0,0.0632
521.0,0.0643
522.0,0.0653
523.0,0.0666
524.0,0.0677
525.0,0.0690
526.0,0.0703
527.0,0.0718
528.0,0.0734
529.0,0.0749
530.0,0.0767
531.0,0.0784
532.0,0.0803
533.0,0.0822
534.0,0.0842
535.0,0.0864
536.0,0.0887
537.0,0.0910
538.0,0.0935
539.0,0.0960
540.0,0.0986
541.0,0.1013
542.0,0.1040
543.0,0.1067
544.0,0.1098
545.0,0.1129
546.0,0.1161
547.0,0.1195
548.0,0.1229
549.0,0.1264
550.0,0.1299
551.0,0.1338
552.0,0.1376
553.0,0.1414
554.0,0.1456
555.0,0.1497
556.0,0.1539
557.0,0.1581
558.0,0.1623
559.0,0.1668
560.0,0.1713
561.0,0.1758
562.0,0.1803
563.0,0.1851
564.0,0.1899
565.0,0.1948
566.0,0.1998
567.0,0.2050
568.0,0.2102
569.0,0.2158
570.0,0.2217
571.0,0.2277
572.0,0.2341
573.0,0.2406
574.0,0.2475
575.0,0.2544
576.0,0.2617
577.0,0.2690
578.0,0.2768
579.0,0.2848
580.0,0.2931
581.0,0.3011
582.0,0.3097
583.0,0.3183
584.0,0.3268
585.0,0.3358
586.0,0.3448
587.0,0.3539
588.0,0.3633
589.0,0.3727
590.0,0.3821
591.0,0.3919
592.0,0.4017
593.0,0.4115
594.0,0.4210
595.0,0.4303
596.0,0.4400
597.0,0.4494
598.0,0.4581
599.0,0.4672
600.0,0.4754
601.0,0.4836
602.0,0.4913
603.0,0.4983
604.0,0.5054
605.0,0.5118
606.0,0.5177
607.0,0.5233
608.0,0.5286
609.0,0.5331
610.0,0.5375
611.0,0.5414
612.0,0.5448
613.0,0.5482
614.0,0.5512
615.0,0.5540
616.0,0.5567
617.0,0.5593
618.0,0.5618
619.0,0.5645
620.0,0.5673
621.0,0.5702
622.0,0.5733
623.0,0.5767
624.0,0.5806
625.0,0.5846
626.0,0.5892
627.0,0.5940
628.0,0.5991
629.0,0.6049
630.0,0.6109
631.0,0.6172
632.0,0.6237
633.0,0.6307
634.0,0.6378
635.0,0.6456
636.0,0.6534
637.0,0.6614
638.0,0.6696
639.0,0.6779
640.0,0.6863
641.0,0.6948
642.0,0.7034
643.0,0.7118
644.0,0.7203
645.0,0.7284
646.0,0.7360
647.0,0.7435
648.0,0.7503
649.0,0.7563
650.0,0.7618
651.0,0.7664
652.0,0.7700
653.0,0.7727
654.0,0.7745
655.0,0.7753
656.0,0.7751
657.0,0.7739
658.0,0.7716
659.0,0.7683
660.0,0.7637
661.0,0.7579
662.0,0.7507
663.0,0.7424
664.0,0.7329
665.0,0.7214
666.0,0.7078
667.0,0.6932
668.0,0.6767
669.0,0.6583
670.0,0.6382
671.0,0.6165
672.0,0.5932
673.0,0.5685
674.0,0.5419
675.0,0.5148
676.0,0.4868
677.0,0.4587
678.0,0.4301
679.0,0.4006
680.0,0.3718
681.0,0.3447
682.0,0.3182
683.0,0.2930
684.0,0.2692
685.0,0.2466
686.0,0.2257
687.0,0.2060
688.0,0.1877
689.0,0.1719
690.0,0.1571
691.0,0.1433
692.0,0.1309
693.0,0.1191
694.0,0.1088
695.0,0.0996
696.0,0.0909
697.0,0.0832
698.0,0.0765
699.0,0.0700
700.0,0.0642
701.0,0.0592
702.0,0.0542
703.0,0.0499
704.0,0.0461
705.0,0.0424
706.0,0.0392
707.0,0.0364
708.0,0.0336
709.0,0.0314
710.0,0.0291
711.0,0.0271
712.0,0.0252
713.0,0.0237
714.0,0.0221
715.0,0.0209
716.0,0.0195
717.0,0.0184
718.0,0.0173
719.0,0.0163
720.0,0.0153
721.0,0.0144
722.0,0.0136
723.0,0.0129
724.0,0.0122
725.0,0.0115
726.0,0.0110
727.0,0.0104
728.0,0.0098
729.0,0.0093
730.0,0.0088
731.0,0.0084
732.0,0.0078
733.0,0.0076
734.0,0.0071
735.0,0.0068
736.0,0.0064
737.0,0.0062
738.0,0.0058
739.0,0.0055
740.0,0.0054
741.0,0.0050
742.0,0.0048
743.0,0.0047
744.0,0.0044
745.0,0.0043
746.0,0.0041
747.0,0.0039
748.0,0.0036
749.0,0.0036
750.0,0.0033
751.0,0.0032
752.0,0.0030
753.0,0.0029
754.0,0.0027
755.0,0.0028
756.0,0.0026
757.0,0.0023
758.0,0.0024
759.0,0.0023
760.0,0.0022
761.0,0.0019
762.0,0.0017
763.0,0.0017
764.0,0.0017
765.0,0.0015
766.0,0.0015
767.0,0.0015
768.0,0.0014
769.0,0.0013
770.0,0.0013
771.0,0.0010
772.0,0.0010
773.0,0.0011
774.0,0.0010
775.0,0.0008
776.0,0.0009
777.0,0.0008
778.0,0.0008
779.0,0.0007
780.0,0.0006
781.0,0.0006
782.0,0.0007
783.0,0.0006
784.0,0.0005
785.0,0.0005
786.0,0.0003
787.0,0.0005
788.0,0.0003
789.0,0.0005
790.0,0.0003
791.0,0.0001
792.0,0.0003
793.0,0.0004
794.0,0.0004
795.0,0.0001
796.0,0.0001
797.0,0.0000
798.0,0.0001
799.0,0.0002
800.0,0.0001
