Summary
[Data Information]
Data is:,Measurement Data
Dataset Name:,RawData
Sample Name:,12ppmMB
Sample ID
Option
Analyst
Date/Time:,07/07/2025 11:39:28
Comments
Parameter File Name:,4NP_bezzetto.vspm
Report File Name
[Software Information]
Software Name:,LabSolutions UV-Vis
Version:,1.13
[Instrument Information]
Instrument Name:,UV-2600i
Instrument Type:,UV-2600 Series
Model (S/N):,UV-2600i (A12595901003)

Parameter
[Measurement]
Start:,800 nm
End:,300 nm
Data Interval:,1.0
Scan Speed:,Medium speed
Spectrum Type:,Absorbance
[Accessories]
Accessories:,None
[Advanced]
Slit Width:,2.0
Detector Unit:,Direct Receiving of Light
Light Source Switch Wavelength:,323
S/R Switch:,Standard
Stair Correction:,ON
[Repeat]
Repeat Measurement:,OFF
[Post-processing]
Spectrum Transformation:,OFF
Data Processing Table:,OFF
Print:,OFF

Wavelength (nm),Absorbance
300.0,0.8556
301.0,0.7887
302.0,0.7223
303.0,0.6607
304.0,0.6023
305.0,0.5489
306.0,0.5004
307.0,0.4582
308.0,0.4226
309.0,0.3918
310.0,0.3663
311.0,0.3460
312.0,0.3298
313.0,0.3164
314.0,0.3058
315.0,0.2965
316.0,0.2885
317.0,0.2816
318.0,0.2754
319.0,0.2698
320.0,0.2649
321.0,0.2602
322.0,0.2564
323.0,0.2530
324.0,0.2497
325.0,0.2460
326.0,0.2422
327.0,0.2371
328.0,0.2313
329.0,0.2238
330.0,0.2149
331.0,0.2045
332.0,0.1939
333.0,0.1818
334.0,0.1697
335.0,0.1568
336.0,0.1444
337.0,0.1327
338.0,0.1216
339.0,0.1112
340.0,0.1018
341.0,0.0938
342.0,0.0861
343.0,0.0794
344.0,0.0738
345.0,0.0687
346.0,0.0641
347.0,0.0602
348.0,0.0567
349.0,0.0533
350.0,0.0506
351.0,0.0478
352.0,0.0454
353.0,0.0431
354.0,0.0409
355.0,0.0387
356.0,0.0369
357.0,0.0349
358.0,0.0333
359.0,0.0317
360.0,0.0304
361.0,0.0291
362.0,0.0281
363.0,0.0272
364.0,0.0264
365.0,0.0257
366.0,0.0252
367.0,0.0249
368.0,0.0247
369.0,0.0246
370.0,0.0245
371.0,0.0244
372.0,0.0244
373.0,0.0244
374.0,0.0247
375.0,0.0248
376.0,0.0250
377.0,0.0252
378.0,0.0255
379.0,0.0258
380.0,0.0261
381.0,0.0264
382.0,0.0269
383.0,0.0273
384.0,0.0278
385.0,0.0283
386.0,0.0290
387.0,0.0295
388.0,0.0301
389.0,0.0304
390.0,0.0309
391.0,0.0314
392.0,0.0316
393.0,0.0317
394.0,0.0316
395.0,0.0314
396.0,0.0310
397.0,0.0303
398.0,0.0295
399.0,0.0286
400.0,0.0275
401.0,0.0263
402.0,0.0249
403.0,0.0237
404.0,0.0221
405.0,0.0207
406.0,0.0193
407.0,0.0180
408.0,0.0167
409.0,0.0155
410.0,0.0145
411.0,0.0135
412.0,0.0128
413.0,0.0121
414.0,0.0115
415.0,0.0113
416.0,0.0110
417.0,0.0110
418.0,0.0109
419.0,0.0109
420.0,0.0110
421.0,0.0112
422.0,0.0114
423.0,0.0117
424.0,0.0120
425.0,0.0125
426.0,0.0128
427.0,0.0134
428.0,0.0138
429.0,0.0144
430.0,0.0149
431.0,0.0156
432.0,0.0162
433.0,0.0168
434.0,0.0175
435.0,0.0182
436.0,0.0190
437.0,0.0197
438.0,0.0205
439.0,0.0214
440.0,0.0221
441.0,0.0229
442.0,0.0239
443.0,0.0248
444.0,0.0257
445.0,0.0267
446.0,0.0277
447.0,0.0287
448.0,0.0298
449.0,0.0309
450.0,0.0320
451.0,0.0330
452.0,0.0342
453.0,0.0353
454.0,0.0364
455.0,0.0375
456.0,0.0387
457.0,0.0398
458.0,0.0410
459.0,0.0423
460.0,0.0436
461.0,0.0448
462.0,0.0460
463.0,0.0472
464.0,0.0485
465.0,0.0498
466.0,0.0509
467.0,0.0521
468.0,0.0534
469.0,0.0547
470.0,0.0559
471.0,0.0571
472.0,0.0585
473.0,0.0596
474.0,0.0610
475.0,0.0622
476.0,0.0636
477.0,0.0650
478.0,0.0663
479.0,0.0676
480.0,0.0691
481.0,0.0705
482.0,0.0718
483.0,0.0733
484.0,0.0747
485.0,0.0761
486.0,0.0775
487.0,0.0788
488.0,0.0801
489.0,0.0812
490.0,0.0825
491.0,0.0835
492.0,0.0846
493.0,0.0855
494.0,0.0865
495.0,0.0873
496.0,0.0881
497.0,0.0887
498.0,0.0894
499.0,0.0900
500.0,0.0906
501.0,0.0910
502.0,0.0915
503.0,0.0918
504.0,0.0923
505.0,0.0926
506.0,0.0929
507.0,0.0931
508.0,0.0936
509.0,0.0939
510.0,0.0943
511.0,0.0946
512.0,0.0952
513.0,0.0957
514.0,0.0964
515.0,0.0972
516.0,0.0979
517.0,0.0987
518.0,0.0997
519.0,0.1008
520.0,0.1022
521.0,0.1036
522.0,0.1052
523.0,0.1067
524.0,0.1086
525.0,0.1106
526.0,0.1127
527.0,0.1151
528.0,0.1177
529.0,0.1204
530.0,0.1234
531.0,0.1264
532.0,0.1298
533.0,0.1334
534.0,0.1370
535.0,0.1412
536.0,0.1453
537.0,0.1498
538.0,0.1544
539.0,0.1592
540.0,0.1643
541.0,0.1697
542.0,0.1755
543.0,0.1811
544.0,0.1872
545.0,0.1935
546.0,0.2002
547.0,0.2073
548.0,0.2145
549.0,0.2221
550.0,0.2300
551.0,0.2384
552.0,0.2466
553.0,0.2548
554.0,0.2634
555.0,0.2722
556.0,0.2811
557.0,0.2902
558.0,0.2991
559.0,0.3080
560.0,0.3173
561.0,0.3262
562.0,0.3350
563.0,0.3447
564.0,0.3542
565.0,0.3639
566.0,0.3740
567.0,0.3840
568.0,0.3944
569.0,0.4054
570.0,0.4170
571.0,0.4289
572.0,0.4421
573.0,0.4556
574.0,0.4696
575.0,0.4844
576.0,0.4999
577.0,0.5160
578.0,0.5328
579.0,0.5511
580.0,0.5702
581.0,0.5897
582.0,0.6104
583.0,0.6313
584.0,0.6526
585.0,0.6754
586.0,0.6988
587.0,0.7234
588.0,0.7492
589.0,0.7755
590.0,0.8022
591.0,0.8305
592.0,0.8594
593.0,0.8895
594.0,0.9197
595.0,0.9505
596.0,0.9824
597.0,1.0136
598.0,1.0432
599.0,1.0740
600.0,1.1035
601.0,1.1333
602.0,1.1612
603.0,1.1866
604.0,1.2111
605.0,1.2332
606.0,1.2530
607.0,1.2711
608.0,1.2864
609.0,1.2994
610.0,1.3100
611.0,1.3177
612.0,1.3228
613.0,1.3261
614.0,1.3274
615.0,1.3266
616.0,1.3247
617.0,1.3212
618.0,1.3172
619.0,1.3123
620.0,1.3076
621.0,1.3030
622.0,1.2988
623.0,1.2955
624.0,1.2933
625.0,1.2927
626.0,1.2934
627.0,1.2960
628.0,1.3002
629.0,1.3068
630.0,1.3152
631.0,1.3256
632.0,1.3380
633.0,1.3529
634.0,1.3697
635.0,1.3889
636.0,1.4103
637.0,1.4334
638.0,1.4595
639.0,1.4874
640.0,1.5165
641.0,1.5481
642.0,1.5805
643.0,1.6137
644.0,1.6490
645.0,1.6842
646.0,1.7184
647.0,1.7550
648.0,1.7901
649.0,1.8241
650.0,1.8575
651.0,1.8910
652.0,1.9231
653.0,1.9545
654.0,1.9842
655.0,2.0114
656.0,2.0383
657.0,2.0636
658.0,2.0866
659.0,2.1087
660.0,2.1281
661.0,2.1441
662.0,2.1559
663.0,2.1631
664.0,2.1642
665.0,2.1592
666.0,2.1474
667.0,2.1281
668.0,2.1000
669.0,2.0636
670.0,2.0180
671.0,1.9651
672.0,1.9045
673.0,1.8371
674.0,1.7607
675.0,1.6792
676.0,1.5942
677.0,1.5042
678.0,1.4142
679.0,1.3202
680.0,1.2271
681.0,1.1383
682.0,1.0493
683.0,0.9640
684.0,0.8837
685.0,0.8074
686.0,0.7380
687.0,0.6720
688.0,0.6101
689.0,0.5558
690.0,0.5055
691.0,0.4586
692.0,0.4163
693.0,0.3784
694.0,0.3436
695.0,0.3125
696.0,0.2832
697.0,0.2577
698.0,0.2351
699.0,0.2136
700.0,0.1948
701.0,0.1787
702.0,0.1629
703.0,0.1493
704.0,0.1369
705.0,0.1253
706.0,0.1151
707.0,0.1063
708.0,0.0981
709.0,0.0909
710.0,0.0843
711.0,0.0783
712.0,0.0731
713.0,0.0680
714.0,0.0638
715.0,0.0597
716.0,0.0561
717.0,0.0527
718.0,0.0496
719.0,0.0467
720.0,0.0441
721.0,0.0416
722.0,0.0392
723.0,0.0371
724.0,0.0351
725.0,0.0333
726.0,0.0314
727.0,0.0298
728.0,0.0283
729.0,0.0269
730.0,0.0253
731.0,0.0243
732.0,0.0230
733.0,0.0218
734.0,0.0207
735.0,0.0199
736.0,0.0188
737.0,0.0179
738.0,0.0170
739.0,0.0161
740.0,0.0156
741.0,0.0149
742.0,0.0141
743.0,0.0134
744.0,0.0128
745.0,0.0122
746.0,0.0116
747.0,0.0110
748.0,0.0103
749.0,0.0100
750.0,0.0094
751.0,0.0089
752.0,0.0086
753.0,0.0081
754.0,0.0076
755.0,0.0073
756.0,0.0070
757.0,0.0067
758.0,0.0064
759.0,0.0061
760.0,0.0057
761.0,0.0051
762.0,0.0048
763.0,0.0045
764.0,0.0044
765.0,0.0042
766.0,0.0040
767.0,0.0037
768.0,0.0034
769.0,0.0033
770.0,0.0032
771.0,0.0029
772.0,0.0028
773.0,0.0026
774.0,0.0024
775.0,0.0022
776.0,0.0022
777.0,0.0019
778.0,0.0017
779.0,0.0017
780.0,0.0015
781.0,0.0015
782.0,0.0013
783.0,0.0011
784.0,0.0013
785.0,0.0011
786.0,0.0010
787.0,0.0009
788.0,0.0008
789.0,0.0008
790.0,0.0006
791.0,0.0006
792.0,0.0006
793.0,0.0004
794.0,0.0003
795.0,0.0004
796.0,-0.0000
797.0,0.0002
798.0,-0.0001
799.0,-0.0001
800.0,-0.0000
