Summary
[Data Information]
Data is:,Measurement Data
Dataset Name:,RawData
Sample Name:,2ppmMB
Sample ID
Option
Analyst
Date/Time:,07/07/2025 11:34:50
Comments
Parameter File Name:,4NP_bezzetto.vspm
Report File Name
[Software Information]
Software Name:,LabSolutions UV-Vis
Version:,1.13
[Instrument Information]
Instrument Name:,UV-2600i
Instrument Type:,UV-2600 Series
Model (S/N):,UV-2600i (A12595901003)

Parameter
[Measurement]
Start:,800 nm
End:,300 nm
Data Interval:,1.0
Scan Speed:,Medium speed
Spectrum Type:,Absorbance
[Accessories]
Accessories:,None
[Advanced]
Slit Width:,2.0
Detector Unit:,Direct Receiving of Light
Light Source Switch Wavelength:,323
S/R Switch:,Standard
Stair Correction:,ON
[Repeat]
Repeat Measurement:,OFF
[Post-processing]
Spectrum Transformation:,OFF
Data Processing Table:,OFF
Print:,OFF

Wavelength (nm),Absorbance
300.0,0.1570
301.0,0.1446
302.0,0.1322
303.0,0.1201
304.0,0.1091
305.0,0.0989
306.0,0.0898
307.0,0.0816
308.0,0.0750
309.0,0.0692
310.0,0.0643
311.0,0.0609
312.0,0.0580
313.0,0.0557
314.0,0.0538
315.0,0.0523
316.0,0.0508
317.0,0.0496
318.0,0.0486
319.0,0.0475
320.0,0.0467
321.0,0.0460
322.0,0.0455
323.0,0.0450
324.0,0.0444
325.0,0.0439
326.0,0.0433
327.0,0.0423
328.0,0.0413
329.0,0.0398
330.0,0.0382
331.0,0.0363
332.0,0.0343
333.0,0.0320
334.0,0.0298
335.0,0.0273
336.0,0.0250
337.0,0.0226
338.0,0.0209
339.0,0.0189
340.0,0.0172
341.0,0.0158
342.0,0.0143
343.0,0.0132
344.0,0.0125
345.0,0.0114
346.0,0.0106
347.0,0.0098
348.0,0.0093
349.0,0.0086
350.0,0.0082
351.0,0.0076
352.0,0.0073
353.0,0.0069
354.0,0.0064
355.0,0.0061
356.0,0.0058
357.0,0.0053
358.0,0.0051
359.0,0.0049
360.0,0.0046
361.0,0.0045
362.0,0.0043
363.0,0.0040
364.0,0.0040
365.0,0.0037
366.0,0.0037
367.0,0.0037
368.0,0.0036
369.0,0.0036
370.0,0.0036
371.0,0.0037
372.0,0.0035
373.0,0.0035
374.0,0.0036
375.0,0.0036
376.0,0.0036
377.0,0.0037
378.0,0.0037
379.0,0.0038
380.0,0.0038
381.0,0.0039
382.0,0.0041
383.0,0.0041
384.0,0.0042
385.0,0.0043
386.0,0.0044
387.0,0.0046
388.0,0.0046
389.0,0.0046
390.0,0.0047
391.0,0.0048
392.0,0.0048
393.0,0.0048
394.0,0.0047
395.0,0.0047
396.0,0.0046
397.0,0.0045
398.0,0.0043
399.0,0.0041
400.0,0.0039
401.0,0.0037
402.0,0.0034
403.0,0.0032
404.0,0.0029
405.0,0.0026
406.0,0.0023
407.0,0.0020
408.0,0.0019
409.0,0.0017
410.0,0.0014
411.0,0.0011
412.0,0.0011
413.0,0.0009
414.0,0.0008
415.0,0.0008
416.0,0.0007
417.0,0.0008
418.0,0.0007
419.0,0.0007
420.0,0.0007
421.0,0.0008
422.0,0.0008
423.0,0.0008
424.0,0.0009
425.0,0.0010
426.0,0.0011
427.0,0.0011
428.0,0.0013
429.0,0.0013
430.0,0.0014
431.0,0.0016
432.0,0.0016
433.0,0.0017
434.0,0.0018
435.0,0.0020
436.0,0.0022
437.0,0.0023
438.0,0.0024
439.0,0.0026
440.0,0.0027
441.0,0.0027
442.0,0.0031
443.0,0.0032
444.0,0.0033
445.0,0.0035
446.0,0.0037
447.0,0.0040
448.0,0.0040
449.0,0.0043
450.0,0.0045
451.0,0.0049
452.0,0.0049
453.0,0.0051
454.0,0.0053
455.0,0.0056
456.0,0.0058
457.0,0.0060
458.0,0.0062
459.0,0.0064
460.0,0.0067
461.0,0.0069
462.0,0.0071
463.0,0.0073
464.0,0.0075
465.0,0.0077
466.0,0.0080
467.0,0.0082
468.0,0.0083
469.0,0.0086
470.0,0.0088
471.0,0.0091
472.0,0.0094
473.0,0.0095
474.0,0.0097
475.0,0.0099
476.0,0.0102
477.0,0.0104
478.0,0.0106
479.0,0.0109
480.0,0.0112
481.0,0.0114
482.0,0.0117
483.0,0.0119
484.0,0.0122
485.0,0.0125
486.0,0.0127
487.0,0.0129
488.0,0.0131
489.0,0.0133
490.0,0.0135
491.0,0.0137
492.0,0.0139
493.0,0.0141
494.0,0.0142
495.0,0.0144
496.0,0.0145
497.0,0.0145
498.0,0.0147
499.0,0.0147
500.0,0.0149
501.0,0.0149
502.0,0.0150
503.0,0.0150
504.0,0.0150
505.0,0.0150
506.0,0.0150
507.0,0.0151
508.0,0.0152
509.0,0.0151
510.0,0.0151
511.0,0.0151
512.0,0.0152
513.0,0.0152
514.0,0.0153
515.0,0.0154
516.0,0.0154
517.0,0.0155
518.0,0.0156
519.0,0.0157
520.0,0.0160
521.0,0.0161
522.0,0.0164
523.0,0.0166
524.0,0.0169
525.0,0.0172
526.0,0.0175
527.0,0.0178
528.0,0.0182
529.0,0.0186
530.0,0.0191
531.0,0.0196
532.0,0.0201
533.0,0.0207
534.0,0.0212
535.0,0.0219
536.0,0.0226
537.0,0.0232
538.0,0.0241
539.0,0.0248
540.0,0.0257
541.0,0.0266
542.0,0.0275
543.0,0.0284
544.0,0.0294
545.0,0.0304
546.0,0.0315
547.0,0.0327
548.0,0.0338
549.0,0.0351
550.0,0.0364
551.0,0.0379
552.0,0.0391
553.0,0.0405
554.0,0.0420
555.0,0.0434
556.0,0.0450
557.0,0.0465
558.0,0.0481
559.0,0.0496
560.0,0.0512
561.0,0.0528
562.0,0.0541
563.0,0.0559
564.0,0.0576
565.0,0.0592
566.0,0.0611
567.0,0.0627
568.0,0.0646
569.0,0.0664
570.0,0.0684
571.0,0.0704
572.0,0.0727
573.0,0.0749
574.0,0.0773
575.0,0.0797
576.0,0.0822
577.0,0.0849
578.0,0.0877
579.0,0.0908
580.0,0.0938
581.0,0.0969
582.0,0.1001
583.0,0.1035
584.0,0.1069
585.0,0.1105
586.0,0.1144
587.0,0.1182
588.0,0.1222
589.0,0.1263
590.0,0.1305
591.0,0.1350
592.0,0.1396
593.0,0.1442
594.0,0.1490
595.0,0.1538
596.0,0.1587
597.0,0.1637
598.0,0.1684
599.0,0.1733
600.0,0.1781
601.0,0.1831
602.0,0.1877
603.0,0.1921
604.0,0.1963
605.0,0.2003
606.0,0.2040
607.0,0.2078
608.0,0.2110
609.0,0.2140
610.0,0.2167
611.0,0.2190
612.0,0.2210
613.0,0.2229
614.0,0.2244
615.0,0.2256
616.0,0.2269
617.0,0.2279
618.0,0.2288
619.0,0.2297
620.0,0.2307
621.0,0.2315
622.0,0.2325
623.0,0.2337
624.0,0.2350
625.0,0.2366
626.0,0.2385
627.0,0.2406
628.0,0.2430
629.0,0.2458
630.0,0.2489
631.0,0.2524
632.0,0.2561
633.0,0.2603
634.0,0.2646
635.0,0.2696
636.0,0.2749
637.0,0.2807
638.0,0.2869
639.0,0.2933
640.0,0.3000
641.0,0.3070
642.0,0.3143
643.0,0.3218
644.0,0.3296
645.0,0.3373
646.0,0.3448
647.0,0.3527
648.0,0.3603
649.0,0.3676
650.0,0.3749
651.0,0.3822
652.0,0.3891
653.0,0.3958
654.0,0.4022
655.0,0.4081
656.0,0.4139
657.0,0.4193
658.0,0.4242
659.0,0.4291
660.0,0.4333
661.0,0.4369
662.0,0.4394
663.0,0.4412
664.0,0.4417
665.0,0.4407
666.0,0.4385
667.0,0.4345
668.0,0.4288
669.0,0.4213
670.0,0.4120
671.0,0.4008
672.0,0.3884
673.0,0.3742
674.0,0.3583
675.0,0.3411
676.0,0.3233
677.0,0.3047
678.0,0.2857
679.0,0.2660
680.0,0.2463
681.0,0.2276
682.0,0.2091
683.0,0.1913
684.0,0.1748
685.0,0.1588
686.0,0.1442
687.0,0.1305
688.0,0.1174
689.0,0.1062
690.0,0.0958
691.0,0.0862
692.0,0.0776
693.0,0.0697
694.0,0.0627
695.0,0.0562
696.0,0.0503
697.0,0.0452
698.0,0.0406
699.0,0.0364
700.0,0.0325
701.0,0.0293
702.0,0.0262
703.0,0.0237
704.0,0.0212
705.0,0.0189
706.0,0.0170
707.0,0.0153
708.0,0.0138
709.0,0.0125
710.0,0.0111
711.0,0.0101
712.0,0.0091
713.0,0.0082
714.0,0.0076
715.0,0.0068
716.0,0.0062
717.0,0.0056
718.0,0.0052
719.0,0.0048
720.0,0.0044
721.0,0.0039
722.0,0.0036
723.0,0.0034
724.0,0.0030
725.0,0.0028
726.0,0.0025
727.0,0.0024
728.0,0.0022
729.0,0.0022
730.0,0.0018
731.0,0.0018
732.0,0.0015
733.0,0.0015
734.0,0.0014
735.0,0.0014
736.0,0.0012
737.0,0.0011
738.0,0.0012
739.0,0.0009
740.0,0.0010
741.0,0.0009
742.0,0.0007
743.0,0.0007
744.0,0.0007
745.0,0.0006
746.0,0.0006
747.0,0.0005
748.0,0.0004
749.0,0.0004
750.0,0.0005
751.0,0.0002
752.0,0.0003
753.0,0.0002
754.0,0.0002
755.0,0.0001
756.0,0.0002
757.0,0.0001
758.0,0.0003
759.0,0.0001
760.0,-0.0000
761.0,-0.0001
762.0,-0.0001
763.0,-0.0001
764.0,0.0000
765.0,-0.0001
766.0,-0.0001
767.0,-0.0002
768.0,-0.0002
769.0,-0.0002
770.0,-0.0002
771.0,-0.0002
772.0,-0.0002
773.0,-0.0001
774.0,-0.0003
775.0,-0.0003
776.0,-0.0003
777.0,-0.0002
778.0,-0.0003
779.0,-0.0002
780.0,-0.0002
781.0,-0.0004
782.0,-0.0003
783.0,-0.0004
784.0,-0.0001
785.0,-0.0003
786.0,-0.0003
787.0,-0.0003
788.0,-0.0005
789.0,-0.0003
790.0,-0.0002
791.0,-0.0004
792.0,-0.0002
793.0,-0.0003
794.0,-0.0004
795.0,-0.0004
796.0,-0.0005
797.0,-0.0002
798.0,-0.0003
799.0,-0.0003
800.0,-0.0003
